LabVIEW Measurement	
Writer_Version	2
Reader_Version	2
Separator	Tab
Decimal_Separator	.
Multi_Headings	Yes
X_Columns	One
Time_Pref	Relative
Operator	zvar
Date	2019/11/28
Time	13:53:33.7828183174133300781
***End_of_Header***	
	
Channels	4				
Samples	720	720	720	720	
Date	2019/11/28	2019/11/28	2019/11/28	2019/11/28	
Time	13:53:33.7828183174133300781	13:53:33.7828183174133300781	13:53:33.7828183174133300781	13:53:33.7828183174133300781	
X_Dimension	Time	Time	Time	Time	
X0	0.0000000000000000E+0	0.0000000000000000E+0	0.0000000000000000E+0	0.0000000000000000E+0	
Delta_X	1.000000	1.000000	1.000000	1.000000	
***End_of_Header***					
X_Value	Untitled	Untitled 1	Untitled 2	Untitled 3	Comment
0.000000	0.570000	0.445719	0.046738	100.000000
1.000000	1.570000	0.432419	0.047596	100.000000
2.000000	2.570000	0.420665	0.045405	100.000000
3.000000	3.570000	0.403949	0.045471	100.000000
4.000000	4.570000	0.384574	0.045202	100.000000
5.000000	5.570000	0.360490	0.045045	100.000000
6.000000	6.570000	0.333098	0.043241	100.000000
7.000000	7.570000	0.303244	0.041910	99.000000
8.000000	8.570000	0.269490	0.045016	100.000000
9.000000	9.570000	0.232331	0.042147	99.000000
10.000000	10.570000	0.197614	0.043366	100.000000
11.000000	11.570000	0.158168	0.042879	99.000000
12.000000	12.570000	0.120115	0.041189	99.000000
13.000000	13.570000	0.083587	0.044198	99.000000
14.000000	14.570000	0.046007	0.043925	99.000000
15.000000	15.570000	0.013291	0.044570	99.000000
16.000000	16.570000	-0.016428	0.044205	99.000000
17.000000	17.570000	-0.040211	0.041441	99.000000
18.000000	18.570000	-0.063214	0.044595	99.000000
19.000000	19.570000	-0.078990	0.044275	99.000000
20.000000	20.570000	-0.089978	0.044620	100.000000
21.000000	21.570000	-0.098102	0.045588	100.000000
22.000000	22.570000	-0.104824	0.047228	100.000000
23.000000	23.570000	-0.109400	0.042715	99.000000
24.000000	24.570000	-0.112922	0.043320	99.000000
25.000000	25.570000	-0.116172	0.042560	99.000000
26.000000	26.570000	-0.115373	0.043134	99.000000
27.000000	27.570000	-0.111816	0.046569	100.000000
28.000000	28.570000	-0.108184	0.044729	99.000000
29.000000	29.570000	-0.103027	0.048232	100.000000
30.000000	30.570000	-0.100795	0.045138	99.000000
31.000000	31.570000	-0.090140	0.047054	100.000000
32.000000	32.570000	-0.088485	0.044310	99.000000
33.000000	33.570000	-0.085988	0.048396	100.000000
34.000000	34.570000	-0.078295	0.048079	100.000000
35.000000	35.570000	-0.075868	0.044378	99.000000
36.000000	36.570000	-0.069956	0.046868	100.000000
37.000000	37.570000	-0.065501	0.044398	99.000000
38.000000	38.570000	-0.059621	0.047038	100.000000
39.000000	39.570000	-0.056548	0.045767	100.000000
40.000000	40.570000	-0.055788	0.045803	99.000000
41.000000	41.570000	-0.053438	0.046478	100.000000
42.000000	42.570000	-0.051353	0.046527	100.000000
43.000000	43.570000	-0.048262	0.046483	100.000000
44.000000	44.570000	-0.046784	0.045724	99.000000
45.000000	45.570000	-0.042870	0.048591	100.000000
46.000000	46.570000	-0.041073	0.047588	100.000000
47.000000	47.570000	-0.038664	0.047370	100.000000
48.000000	48.570000	-0.038394	0.045535	100.000000
49.000000	49.570000	-0.036867	0.049467	100.000000
50.000000	50.570000	-0.036957	0.050209	100.000000
51.000000	51.570000	-0.037082	0.047176	100.000000
52.000000	52.570000	-0.038904	0.045477	99.000000
53.000000	53.570000	-0.037280	0.046572	100.000000
54.000000	54.570000	-0.040372	0.047693	100.000000
55.000000	55.570000	-0.042133	0.046026	100.000000
56.000000	56.570000	-0.045404	0.049558	100.000000
57.000000	57.570000	-0.048639	0.051913	100.000000
58.000000	58.570000	-0.050311	0.049522	100.000000
59.000000	59.570000	-0.054894	0.049212	100.000000
60.000000	60.570000	-0.057015	0.046231	100.000000
61.000000	61.570000	-0.059945	0.047064	100.000000
62.000000	62.570000	-0.063018	0.047687	100.000000
63.000000	63.570000	-0.064815	0.048147	100.000000
64.000000	64.570000	-0.068194	0.047494	100.000000
65.000000	65.570000	-0.070279	0.048903	100.000000
66.000000	66.570000	-0.071448	0.048527	100.000000
67.000000	67.570000	-0.073640	0.050518	100.000000
68.000000	68.570000	-0.077429	0.047615	99.000000
69.000000	69.570000	-0.075905	0.050968	100.000000
70.000000	70.570000	-0.076750	0.049569	100.000000
71.000000	71.570000	-0.077612	0.050046	100.000000
72.000000	72.570000	-0.078188	0.049121	100.000000
73.000000	73.570000	-0.078026	0.048855	100.000000
74.000000	74.570000	-0.078565	0.050035	100.000000
75.000000	75.570000	-0.079212	0.048622	100.000000
76.000000	76.570000	-0.078889	0.049035	100.000000
77.000000	77.570000	-0.081585	0.048720	100.000000
78.000000	78.570000	-0.079518	0.049094	100.000000
79.000000	79.570000	-0.077415	0.051563	100.000000
80.000000	80.570000	-0.077199	0.048268	100.000000
81.000000	81.570000	-0.076732	0.050356	100.000000
82.000000	82.570000	-0.076049	0.049289	100.000000
83.000000	83.570000	-0.075528	0.047685	100.000000
84.000000	84.570000	-0.074898	0.048206	100.000000
85.000000	85.570000	-0.075833	0.047020	100.000000
86.000000	86.570000	-0.071609	0.046013	100.000000
87.000000	87.570000	-0.071501	0.047041	100.000000
88.000000	88.570000	-0.069399	0.046541	100.000000
89.000000	89.570000	-0.069920	0.045282	100.000000
90.000000	90.570000	-0.074234	0.041807	99.000000
91.000000	91.570000	-0.071565	0.041570	99.000000
92.000000	92.570000	-0.070657	0.044866	99.000000
93.000000	93.570000	-0.070944	0.044985	100.000000
94.000000	94.570000	-0.070657	0.044984	100.000000
95.000000	95.570000	-0.070962	0.044453	100.000000
96.000000	96.570000	-0.073671	0.044345	99.000000
97.000000	97.570000	-0.072745	0.045207	99.000000
98.000000	98.570000	-0.074325	0.045300	99.000000
99.000000	99.570000	-0.073748	0.049114	100.000000
100.000000	100.570000	-0.075614	0.046113	99.000000
101.000000	101.570000	-0.076013	0.046677	100.000000
102.000000	102.570000	-0.075581	0.047845	100.000000
103.000000	103.570000	-0.075653	0.044669	100.000000
104.000000	104.570000	-0.079608	0.043972	99.000000
105.000000	105.570000	-0.076175	0.045112	100.000000
106.000000	106.570000	-0.076606	0.044964	100.000000
107.000000	107.570000	-0.076354	0.046187	100.000000
108.000000	108.570000	-0.075995	0.044789	100.000000
109.000000	109.570000	-0.076336	0.044244	100.000000
110.000000	110.570000	-0.076336	0.045305	100.000000
111.000000	111.570000	-0.079554	0.045553	100.000000
112.000000	112.570000	-0.079554	0.045885	100.000000
113.000000	113.570000	-0.079446	0.046954	100.000000
114.000000	114.570000	-0.080165	0.045674	100.000000
115.000000	115.570000	-0.081060	0.046238	99.000000
116.000000	116.570000	-0.080722	0.047786	100.000000
117.000000	117.570000	-0.080057	0.046210	100.000000
118.000000	118.570000	-0.081117	0.049951	100.000000
119.000000	119.570000	-0.080075	0.049262	100.000000
120.000000	120.570000	-0.081854	0.048820	100.000000
121.000000	121.570000	-0.079374	0.046461	100.000000
122.000000	122.570000	-0.080237	0.049248	100.000000
123.000000	123.570000	-0.080956	0.048209	100.000000
124.000000	124.570000	-0.081261	0.047723	100.000000
125.000000	125.570000	-0.081764	0.048924	100.000000
126.000000	126.570000	-0.082429	0.049859	100.000000
127.000000	127.570000	-0.082933	0.049821	100.000000
128.000000	128.570000	-0.080938	0.048904	100.000000
129.000000	129.570000	-0.082663	0.050752	100.000000
130.000000	130.570000	-0.079590	0.049189	100.000000
131.000000	131.570000	-0.082357	0.050425	100.000000
132.000000	132.570000	-0.080255	0.049677	100.000000
133.000000	133.570000	-0.078313	0.049264	100.000000
134.000000	134.570000	-0.078403	0.051060	100.000000
135.000000	135.570000	-0.076983	0.048194	100.000000
136.000000	136.570000	-0.076911	0.049657	100.000000
137.000000	137.570000	-0.075761	0.048150	100.000000
138.000000	138.570000	-0.076732	0.050053	100.000000
139.000000	139.570000	-0.075258	0.050318	100.000000
140.000000	140.570000	-0.072292	0.049589	100.000000
141.000000	141.570000	-0.072364	0.048064	100.000000
142.000000	142.570000	-0.070459	0.049441	100.000000
143.000000	143.570000	-0.071304	0.049415	100.000000
144.000000	144.570000	-0.068823	0.047021	100.000000
145.000000	145.570000	-0.070082	0.047615	100.000000
146.000000	146.570000	-0.066145	0.046751	100.000000
147.000000	147.570000	-0.065966	0.049377	100.000000
148.000000	148.570000	-0.066595	0.048106	100.000000
149.000000	149.570000	-0.063395	0.047781	100.000000
150.000000	150.570000	-0.061670	0.047599	100.000000
151.000000	151.570000	-0.060502	0.047049	100.000000
152.000000	152.570000	-0.059118	0.048666	100.000000
153.000000	153.570000	-0.058417	0.048843	100.000000
154.000000	154.570000	-0.055541	0.046795	100.000000
155.000000	155.570000	-0.056332	0.045103	100.000000
156.000000	156.570000	-0.052917	0.046289	100.000000
157.000000	157.570000	-0.053456	0.049629	100.000000
158.000000	158.570000	-0.050922	0.046553	100.000000
159.000000	159.570000	-0.049682	0.047496	100.000000
160.000000	160.570000	-0.048226	0.047981	100.000000
161.000000	161.570000	-0.048280	0.047518	100.000000
162.000000	162.570000	-0.045925	0.047517	100.000000
163.000000	163.570000	-0.046572	0.046830	100.000000
164.000000	164.570000	-0.050293	0.047640	100.000000
165.000000	165.570000	-0.046249	0.047785	100.000000
166.000000	166.570000	-0.044254	0.046868	100.000000
167.000000	167.570000	-0.043032	0.045917	100.000000
168.000000	168.570000	-0.040767	0.046588	100.000000
169.000000	169.570000	-0.039347	0.044055	100.000000
170.000000	170.570000	-0.037927	0.045359	100.000000
171.000000	171.570000	-0.038682	0.045660	100.000000
172.000000	172.570000	-0.036741	0.046420	100.000000
173.000000	173.570000	-0.036579	0.045359	100.000000
174.000000	174.570000	-0.034297	0.046335	100.000000
175.000000	175.570000	-0.033470	0.045676	100.000000
176.000000	176.570000	-0.031349	0.045982	100.000000
177.000000	177.570000	-0.028940	0.044883	100.000000
178.000000	178.570000	-0.029677	0.046655	100.000000
179.000000	179.570000	-0.027197	0.046703	100.000000
180.000000	180.570000	-0.028617	0.047220	100.000000
181.000000	181.570000	-0.024375	0.044943	100.000000
182.000000	182.570000	-0.022438	0.043927	99.000000
183.000000	183.570000	-0.021050	0.044174	100.000000
184.000000	184.570000	-0.021068	0.044836	100.000000
185.000000	185.570000	-0.019756	0.043820	100.000000
186.000000	186.570000	-0.016593	0.045927	100.000000
187.000000	187.570000	-0.013375	0.043369	100.000000
188.000000	188.570000	-0.012836	0.043679	100.000000
189.000000	189.570000	-0.009781	0.043267	100.000000
190.000000	190.570000	-0.010679	0.045605	100.000000
191.000000	191.570000	-0.008343	0.044504	100.000000
192.000000	192.570000	-0.006044	0.042586	99.000000
193.000000	193.570000	-0.004101	0.044804	100.000000
194.000000	194.570000	1.472269E-5	0.044002	100.000000
195.000000	195.570000	0.001902	0.043749	100.000000
196.000000	196.570000	0.005533	0.044921	100.000000
197.000000	197.570000	0.004559	0.043265	99.000000
198.000000	198.570000	0.007761	0.045249	100.000000
199.000000	199.570000	0.011050	0.044320	100.000000
200.000000	200.570000	0.015364	0.046032	100.000000
201.000000	201.570000	0.015579	0.042292	99.000000
202.000000	202.570000	0.021745	0.046104	100.000000
203.000000	203.570000	0.025357	0.046889	100.000000
204.000000	204.570000	0.030120	0.047255	100.000000
205.000000	205.570000	0.032816	0.046619	100.000000
206.000000	206.570000	0.036393	0.046914	100.000000
207.000000	207.570000	0.035640	0.047366	99.000000
208.000000	208.570000	0.042198	0.049194	100.000000
209.000000	209.570000	0.046692	0.048536	100.000000
210.000000	210.570000	0.049765	0.046922	100.000000
211.000000	211.570000	0.053971	0.048991	100.000000
212.000000	212.570000	0.057961	0.049066	100.000000
213.000000	213.570000	0.062526	0.048356	100.000000
214.000000	214.570000	0.065474	0.047226	100.000000
215.000000	215.570000	0.071980	0.049313	100.000000
216.000000	216.570000	0.074299	0.048493	100.000000
217.000000	217.570000	0.076525	0.046138	99.000000
218.000000	218.570000	0.082818	0.046144	100.000000
219.000000	219.570000	0.087761	0.048243	100.000000
220.000000	220.570000	0.091589	0.046517	100.000000
221.000000	221.570000	0.096730	0.046758	100.000000
222.000000	222.570000	0.100414	0.046049	100.000000
223.000000	223.570000	0.103865	0.047272	100.000000
224.000000	224.570000	0.106543	0.046998	100.000000
225.000000	225.570000	0.109527	0.047632	100.000000
226.000000	226.570000	0.114505	0.047072	100.000000
227.000000	227.570000	0.118118	0.048142	100.000000
228.000000	228.570000	0.121227	0.047469	100.000000
229.000000	229.570000	0.125811	0.048389	100.000000
230.000000	230.570000	0.132856	0.049075	100.000000
231.000000	231.570000	0.139183	0.047287	100.000000
232.000000	232.570000	0.144880	0.046705	100.000000
233.000000	233.570000	0.150973	0.046646	100.000000
234.000000	234.570000	0.155916	0.045770	100.000000
235.000000	235.570000	0.161578	0.046703	100.000000
236.000000	236.570000	0.165712	0.046500	100.000000
237.000000	237.570000	0.173620	0.047513	100.000000
238.000000	238.570000	0.179515	0.046287	100.000000
239.000000	239.570000	0.186615	0.047840	100.000000
240.000000	240.570000	0.193499	0.046956	100.000000
241.000000	241.570000	0.200706	0.046758	100.000000
242.000000	242.570000	0.207877	0.044213	100.000000
243.000000	243.570000	0.217385	0.045519	100.000000
244.000000	244.570000	0.223245	0.044766	100.000000
245.000000	245.570000	0.234658	0.045246	100.000000
246.000000	246.570000	0.242171	0.043243	100.000000
247.000000	247.570000	0.249737	0.043748	100.000000
248.000000	248.570000	0.260108	0.043125	100.000000
249.000000	249.570000	0.267642	0.043142	99.000000
250.000000	250.570000	0.281514	0.045399	100.000000
251.000000	251.570000	0.291544	0.045576	100.000000
252.000000	252.570000	0.302058	0.044209	100.000000
253.000000	253.570000	0.312033	0.044798	100.000000
254.000000	254.570000	0.324363	0.044122	100.000000
255.000000	255.570000	0.335435	0.045241	100.000000
256.000000	256.570000	0.344601	0.043689	99.000000
257.000000	257.570000	0.358027	0.044077	100.000000
258.000000	258.570000	0.371921	0.045050	100.000000
259.000000	259.570000	0.382019	0.044692	99.000000
260.000000	260.570000	0.396886	0.046471	100.000000
261.000000	261.570000	0.412415	0.044905	100.000000
262.000000	262.570000	0.426326	0.046116	100.000000
263.000000	263.570000	0.442251	0.044200	100.000000
264.000000	264.570000	0.455749	0.044464	100.000000
265.000000	265.570000	0.473776	0.045130	100.000000
266.000000	266.570000	0.490096	0.044783	100.000000
267.000000	267.570000	0.507890	0.046854	100.000000
268.000000	268.570000	0.524802	0.044162	100.000000
269.000000	269.570000	0.542848	0.047501	100.000000
270.000000	270.570000	0.562637	0.044563	100.000000
271.000000	271.570000	0.582803	0.042895	100.000000
272.000000	272.570000	0.601783	0.046075	100.000000
273.000000	273.570000	0.627826	0.046584	100.000000
274.000000	274.570000	0.644812	0.045806	99.000000
275.000000	275.570000	0.671645	0.046894	100.000000
276.000000	276.570000	0.692432	0.044940	99.000000
277.000000	277.570000	0.717722	0.044327	99.000000
278.000000	278.570000	0.743557	0.045640	100.000000
279.000000	279.570000	0.770045	0.043011	99.000000
280.000000	280.570000	0.795934	0.044480	99.000000
281.000000	281.570000	0.828068	0.044580	100.000000
282.000000	282.570000	0.857203	0.045969	100.000000
283.000000	283.570000	0.887722	0.045346	100.000000
284.000000	284.570000	0.918133	0.046214	100.000000
285.000000	285.570000	0.954798	0.046422	100.000000
286.000000	286.570000	0.986899	0.046643	100.000000
287.000000	287.570000	1.025524	0.050152	100.000000
288.000000	288.570000	1.063196	0.047130	100.000000
289.000000	289.570000	1.103259	0.047815	100.000000
290.000000	290.570000	1.142117	0.049796	100.000000
291.000000	291.570000	1.184517	0.048329	100.000000
292.000000	292.570000	1.229073	0.047470	100.000000
293.000000	293.570000	1.277637	0.047962	100.000000
294.000000	294.570000	1.323901	0.047298	100.000000
295.000000	295.570000	1.376509	0.048033	100.000000
296.000000	296.570000	1.427463	0.047725	100.000000
297.000000	297.570000	1.481527	0.049132	100.000000
298.000000	298.570000	1.534729	0.047308	100.000000
299.000000	299.570000	1.597474	0.045690	100.000000
300.000000	300.570000	1.658026	0.048024	100.000000
301.000000	301.570000	1.723288	0.048401	100.000000
302.000000	302.570000	1.788459	0.049005	100.000000
303.000000	303.570000	1.858598	0.046702	99.000000
304.000000	304.570000	1.930647	0.048090	100.000000
305.000000	305.570000	2.007771	0.049793	100.000000
306.000000	306.570000	2.086387	0.047512	100.000000
307.000000	307.570000	2.168975	0.050648	100.000000
308.000000	308.570000	2.257242	0.050257	100.000000
309.000000	309.570000	2.346300	0.048492	100.000000
310.000000	310.570000	2.441038	0.049148	100.000000
311.000000	311.570000	2.539838	0.048356	100.000000
312.000000	312.570000	2.644785	0.049286	100.000000
313.000000	313.570000	2.748581	0.052053	100.000000
314.000000	314.570000	2.859280	0.051453	100.000000
315.000000	315.570000	2.977778	0.049019	100.000000
316.000000	316.570000	3.103556	0.049668	100.000000
317.000000	317.570000	3.229981	0.049806	100.000000
318.000000	318.570000	3.366597	0.049347	100.000000
319.000000	319.570000	3.508264	0.050535	100.000000
320.000000	320.570000	3.656275	0.050492	100.000000
321.000000	321.570000	3.807305	0.049634	100.000000
322.000000	322.570000	3.973631	0.048939	100.000000
323.000000	323.570000	4.138897	0.050429	100.000000
324.000000	324.570000	4.312574	0.047609	100.000000
325.000000	325.570000	4.491284	0.051009	100.000000
326.000000	326.570000	4.683473	0.047762	100.000000
327.000000	327.570000	4.876472	0.050473	100.000000
328.000000	328.570000	5.085736	0.048963	100.000000
329.000000	329.570000	5.296007	0.047616	100.000000
330.000000	330.570000	5.521753	0.047402	100.000000
331.000000	331.570000	5.751166	0.047604	100.000000
332.000000	332.570000	5.989044	0.049899	100.000000
333.000000	333.570000	6.235760	0.046082	99.000000
334.000000	334.570000	6.484104	0.049718	100.000000
335.000000	335.570000	6.752650	0.047800	99.000000
336.000000	336.570000	7.023141	0.047710	99.000000
337.000000	337.570000	7.307103	0.047362	99.000000
338.000000	338.570000	7.583915	0.050091	100.000000
339.000000	339.570000	7.887807	0.048244	99.000000
340.000000	340.570000	8.191596	0.050635	100.000000
341.000000	341.570000	8.502015	0.052906	100.000000
342.000000	342.570000	8.819821	0.050731	100.000000
343.000000	343.570000	9.146865	0.053619	100.000000
344.000000	344.570000	9.480883	0.058433	100.000000
345.000000	345.570000	9.828040	0.065784	100.000000
346.000000	346.570000	10.191247	0.081739	100.000000
347.000000	347.570000	10.575087	0.106486	100.000000
348.000000	348.570000	10.974115	0.142259	100.000000
349.000000	349.570000	11.412145	0.187166	100.000000
350.000000	350.570000	11.880119	0.247820	100.000000
351.000000	351.570000	12.404403	0.324055	100.000000
352.000000	352.570000	12.958811	0.415954	100.000000
353.000000	353.570000	13.573825	0.521225	100.000000
354.000000	354.570000	14.237997	0.640250	100.000000
355.000000	355.570000	14.966046	0.776411	100.000000
356.000000	356.570000	15.749921	0.912409	100.000000
357.000000	357.570000	16.585882	1.060939	100.000000
358.000000	358.570000	17.463668	1.216626	100.000000
359.000000	359.570000	18.396362	1.377530	100.000000
360.000000	360.570000	19.370449	1.547819	100.000000
361.000000	361.570000	20.369843	1.720914	100.000000
362.000000	362.570000	21.383849	1.883830	100.000000
363.000000	363.570000	22.402277	2.039274	100.000000
364.000000	364.570000	23.430788	2.181952	100.000000
365.000000	365.570000	24.430613	2.302576	100.000000
366.000000	366.570000	25.403586	2.397440	100.000000
367.000000	367.570000	26.292694	2.462281	100.000000
368.000000	368.570000	27.119040	2.485374	100.000000
369.000000	369.570000	27.831632	2.462005	100.000000
370.000000	370.570000	28.433238	2.388592	100.000000
371.000000	371.570000	28.894167	2.277971	100.000000
372.000000	372.570000	29.291512	2.054655	99.000000
373.000000	373.570000	29.479271	1.885309	99.000000
374.000000	374.570000	29.530904	1.704745	99.000000
375.000000	375.570000	29.498929	1.452988	98.000000
376.000000	376.570000	29.322731	1.205498	97.000000
377.000000	377.570000	28.991223	1.031614	97.000000
378.000000	378.570000	28.568755	0.886947	97.000000
379.000000	379.570000	28.059237	0.746848	97.000000
380.000000	380.570000	27.480067	0.636880	97.000000
381.000000	381.570000	26.836637	0.540122	97.000000
382.000000	382.570000	26.142376	0.490051	98.000000
383.000000	383.570000	25.443889	0.427336	98.000000
384.000000	384.570000	24.717928	0.381828	98.000000
385.000000	385.570000	23.967278	0.362143	99.000000
386.000000	386.570000	23.215089	0.355246	100.000000
387.000000	387.570000	22.472787	0.330514	100.000000
388.000000	388.570000	21.740909	0.320403	100.000000
389.000000	389.570000	21.021092	0.306223	100.000000
390.000000	390.570000	20.314144	0.298730	100.000000
391.000000	391.570000	19.621987	0.292273	100.000000
392.000000	392.570000	18.948523	0.284243	100.000000
393.000000	393.570000	18.297311	0.273329	100.000000
394.000000	394.570000	17.646673	0.267380	100.000000
395.000000	395.570000	17.024703	0.256381	100.000000
396.000000	396.570000	16.412344	0.235672	99.000000
397.000000	397.570000	15.845917	0.236747	100.000000
398.000000	398.570000	15.274772	0.218046	99.000000
399.000000	399.570000	14.751048	0.217523	100.000000
400.000000	400.570000	14.227033	0.209005	100.000000
401.000000	401.570000	13.730410	0.199603	100.000000
402.000000	402.570000	13.253791	0.192055	100.000000
403.000000	403.570000	12.789825	0.184131	100.000000
404.000000	404.570000	12.348092	0.176527	100.000000
405.000000	405.570000	11.924010	0.171085	100.000000
406.000000	406.570000	11.515132	0.162118	100.000000
407.000000	407.570000	11.127464	0.155302	100.000000
408.000000	408.570000	10.753221	0.147779	100.000000
409.000000	409.570000	10.393807	0.141538	100.000000
410.000000	410.570000	10.050946	0.135871	100.000000
411.000000	411.570000	9.719642	0.130873	100.000000
412.000000	412.570000	9.407498	0.125095	100.000000
413.000000	413.570000	9.108093	0.116160	99.000000
414.000000	414.570000	8.816730	0.116835	100.000000
415.000000	415.570000	8.546560	0.109688	99.000000
416.000000	416.570000	8.283604	0.108352	99.000000
417.000000	417.570000	8.025803	0.105149	99.000000
418.000000	418.570000	7.782999	0.102523	99.000000
419.000000	419.570000	7.549658	0.102688	100.000000
420.000000	420.570000	7.324289	0.101533	100.000000
421.000000	421.570000	7.120797	0.098813	99.000000
422.000000	422.570000	6.917624	0.095540	99.000000
423.000000	423.570000	6.722640	0.095395	99.000000
424.000000	424.570000	6.531554	0.097302	100.000000
425.000000	425.570000	6.351604	0.096255	100.000000
426.000000	426.570000	6.179280	0.090909	99.000000
427.000000	427.570000	6.013794	0.092854	100.000000
428.000000	428.570000	5.851692	0.088878	99.000000
429.000000	429.570000	5.695179	0.091590	100.000000
430.000000	430.570000	5.549339	0.085420	99.000000
431.000000	431.570000	5.409128	0.084568	99.000000
432.000000	432.570000	5.273293	0.081228	99.000000
433.000000	433.570000	5.140816	0.084350	99.000000
434.000000	434.570000	5.014784	0.081194	99.000000
435.000000	435.570000	4.894199	0.078620	99.000000
436.000000	436.570000	4.774293	0.081719	100.000000
437.000000	437.570000	4.667262	0.078629	99.000000
438.000000	438.570000	4.555990	0.078743	99.000000
439.000000	439.570000	4.449118	0.080028	100.000000
440.000000	440.570000	4.347370	0.080353	100.000000
441.000000	441.570000	4.256070	0.077120	99.000000
442.000000	442.570000	4.159171	0.078651	100.000000
443.000000	443.570000	4.069401	0.074664	99.000000
444.000000	444.570000	3.982420	0.076797	100.000000
445.000000	445.570000	3.896633	0.076719	100.000000
446.000000	446.570000	3.817283	0.073773	99.000000
447.000000	447.570000	3.737201	0.072383	99.000000
448.000000	448.570000	3.660013	0.076789	100.000000
449.000000	449.570000	3.589432	0.076285	100.000000
450.000000	450.570000	3.517853	0.074090	99.000000
451.000000	451.570000	3.450553	0.070116	99.000000
452.000000	452.570000	3.385285	0.071196	99.000000
453.000000	453.570000	3.318680	0.076920	100.000000
454.000000	454.570000	3.258691	0.072559	99.000000
455.000000	455.570000	3.201140	0.069299	99.000000
456.000000	456.570000	3.140923	0.072208	100.000000
457.000000	457.570000	3.086019	0.069405	99.000000
458.000000	458.570000	3.030530	0.069419	100.000000
459.000000	459.570000	2.979413	0.066722	99.000000
460.000000	460.570000	2.932425	0.065712	98.000000
461.000000	461.570000	2.878475	0.069028	100.000000
462.000000	462.570000	2.833380	0.069084	100.000000
463.000000	463.570000	2.787370	0.066919	99.000000
464.000000	464.570000	2.743453	0.068209	99.000000
465.000000	465.570000	2.700135	0.065604	99.000000
466.000000	466.570000	2.658324	0.066557	99.000000
467.000000	467.570000	2.616259	0.067027	99.000000
468.000000	468.570000	2.574527	0.067257	100.000000
469.000000	469.570000	2.539972	0.065581	99.000000
470.000000	470.570000	2.502991	0.064713	99.000000
471.000000	471.570000	2.468877	0.063839	99.000000
472.000000	472.570000	2.432393	0.068025	100.000000
473.000000	473.570000	2.399888	0.062372	99.000000
474.000000	474.570000	2.368626	0.061797	99.000000
475.000000	475.570000	2.336792	0.065065	100.000000
476.000000	476.570000	2.307406	0.064215	100.000000
477.000000	477.570000	2.276851	0.063874	100.000000
478.000000	478.570000	2.248543	0.063895	100.000000
479.000000	479.570000	2.219731	0.063570	100.000000
480.000000	480.570000	2.192777	0.060115	99.000000
481.000000	481.570000	2.170137	0.059672	99.000000
482.000000	482.570000	2.140882	0.061284	100.000000
483.000000	483.570000	2.122009	0.057874	99.000000
484.000000	484.570000	2.095589	0.060211	100.000000
485.000000	485.570000	2.071936	0.061665	100.000000
486.000000	486.570000	2.051585	0.058353	99.000000
487.000000	487.570000	2.029745	0.058724	99.000000
488.000000	488.570000	2.007160	0.059474	100.000000
489.000000	489.570000	1.985736	0.058626	100.000000
490.000000	490.570000	1.966486	0.059423	100.000000
491.000000	491.570000	1.945601	0.058402	100.000000
492.000000	492.570000	1.924698	0.057758	100.000000
493.000000	493.570000	1.906509	0.057195	100.000000
494.000000	494.570000	1.886918	0.057901	100.000000
495.000000	495.570000	1.867506	0.058027	100.000000
496.000000	496.570000	1.848455	0.057690	100.000000
497.000000	497.570000	1.831164	0.055731	100.000000
498.000000	498.570000	1.814137	0.056343	99.000000
499.000000	499.570000	1.793384	0.057072	100.000000
500.000000	500.570000	1.775644	0.059249	100.000000
501.000000	501.570000	1.756575	0.056445	100.000000
502.000000	502.570000	1.740119	0.056519	99.000000
503.000000	503.570000	1.719262	0.055975	100.000000
504.000000	504.570000	1.699203	0.056113	100.000000
505.000000	505.570000	1.680098	0.056540	100.000000
506.000000	506.570000	1.659734	0.056632	100.000000
507.000000	507.570000	1.640269	0.056544	100.000000
508.000000	508.570000	1.620552	0.055542	100.000000
509.000000	509.570000	1.599074	0.053869	100.000000
510.000000	510.570000	1.576715	0.051390	100.000000
511.000000	511.570000	1.555326	0.054450	100.000000
512.000000	512.570000	1.532734	0.053014	100.000000
513.000000	513.570000	1.512028	0.055258	100.000000
514.000000	514.570000	1.487099	0.053194	100.000000
515.000000	515.570000	1.465046	0.052877	100.000000
516.000000	516.570000	1.440889	0.054379	100.000000
517.000000	517.570000	1.416787	0.053058	100.000000
518.000000	518.570000	1.391894	0.052509	100.000000
519.000000	519.570000	1.365203	0.051731	100.000000
520.000000	520.570000	1.338980	0.053280	100.000000
521.000000	521.570000	1.313063	0.052793	100.000000
522.000000	522.570000	1.284844	0.052887	100.000000
523.000000	523.570000	1.256644	0.053607	100.000000
524.000000	524.570000	1.219349	0.051568	100.000000
525.000000	525.570000	1.197350	0.051739	100.000000
526.000000	526.570000	1.168053	0.051376	100.000000
527.000000	527.570000	1.140895	0.052758	100.000000
528.000000	528.570000	1.110628	0.050720	100.000000
529.000000	529.570000	1.082392	0.054416	100.000000
530.000000	530.570000	1.051442	0.053022	100.000000
531.000000	531.570000	1.022471	0.050928	99.000000
532.000000	532.570000	0.994016	0.052668	100.000000
533.000000	533.570000	0.965744	0.052513	100.000000
534.000000	534.570000	0.934596	0.051585	100.000000
535.000000	535.570000	0.906414	0.051636	100.000000
536.000000	536.570000	0.876434	0.051290	100.000000
537.000000	537.570000	0.844496	0.052844	100.000000
538.000000	538.570000	0.817266	0.052829	100.000000
539.000000	539.570000	0.786711	0.048783	99.000000
540.000000	540.570000	0.754053	0.049177	100.000000
541.000000	541.570000	0.729825	0.050300	100.000000
542.000000	542.570000	0.698296	0.050588	99.000000
543.000000	543.570000	0.673515	0.050178	100.000000
544.000000	544.570000	0.648639	0.052629	100.000000
545.000000	545.570000	0.620727	0.052591	100.000000
546.000000	546.570000	0.590964	0.048804	99.000000
547.000000	547.570000	0.567561	0.053390	100.000000
548.000000	548.570000	0.543171	0.054447	100.000000
549.000000	549.570000	0.520992	0.052924	100.000000
550.000000	550.570000	0.496576	0.049977	99.000000
551.000000	551.570000	0.478305	0.055622	100.000000
552.000000	552.570000	0.457582	0.052618	100.000000
553.000000	553.570000	0.437829	0.051802	100.000000
554.000000	554.570000	0.422282	0.051703	100.000000
555.000000	555.570000	0.403446	0.050927	100.000000
556.000000	556.570000	0.388061	0.051060	100.000000
557.000000	557.570000	0.376414	0.051032	100.000000
558.000000	558.570000	0.364012	0.053824	100.000000
559.000000	559.570000	0.350802	0.051533	100.000000
560.000000	560.570000	0.340198	0.049655	100.000000
561.000000	561.570000	0.331355	0.052761	100.000000
562.000000	562.570000	0.322706	0.047215	99.000000
563.000000	563.570000	0.316257	0.049609	100.000000
564.000000	564.570000	0.307565	0.046500	99.000000
565.000000	565.570000	0.303909	0.049408	100.000000
566.000000	566.570000	0.300171	0.049016	100.000000
567.000000	567.570000	0.293096	0.043720	99.000000
568.000000	568.570000	0.289828	0.046263	99.000000
569.000000	569.570000	0.285779	0.047207	99.000000
570.000000	570.570000	0.284624	0.046943	100.000000
571.000000	571.570000	0.280950	0.044246	99.000000
572.000000	572.570000	0.279080	0.044852	99.000000
573.000000	573.570000	0.275322	0.043246	99.000000
574.000000	574.570000	0.274614	0.044921	99.000000
575.000000	575.570000	0.270384	0.045868	99.000000
576.000000	576.570000	0.269258	0.046684	99.000000
577.000000	577.570000	0.265282	0.047502	99.000000
578.000000	578.570000	0.265464	0.046528	99.000000
579.000000	579.570000	0.262232	0.045608	99.000000
580.000000	580.570000	0.257149	0.046445	99.000000
581.000000	581.570000	0.256695	0.047266	99.000000
582.000000	582.570000	0.252792	0.046739	99.000000
583.000000	583.570000	0.247472	0.047927	99.000000
584.000000	584.570000	0.244186	0.045148	99.000000
585.000000	585.570000	0.241082	0.045161	99.000000
586.000000	586.570000	0.240010	0.044661	99.000000
587.000000	587.570000	0.236271	0.043998	99.000000
588.000000	588.570000	0.233939	0.047787	100.000000
589.000000	589.570000	0.226866	0.044643	99.000000
590.000000	590.570000	0.225069	0.046369	99.000000
591.000000	591.570000	0.220076	0.044760	99.000000
592.000000	592.570000	0.213686	0.046137	99.000000
593.000000	593.570000	0.212052	0.044739	99.000000
594.000000	594.570000	0.208929	0.046624	99.000000
595.000000	595.570000	0.206024	0.045891	99.000000
596.000000	596.570000	0.201849	0.045810	99.000000
597.000000	597.570000	0.198072	0.045285	99.000000
598.000000	598.570000	0.194242	0.045093	99.000000
599.000000	599.570000	0.193497	0.047006	99.000000
600.000000	600.570000	0.189957	0.047857	99.000000
601.000000	601.570000	0.188414	0.044453	99.000000
602.000000	602.570000	0.185291	0.045140	99.000000
603.000000	603.570000	0.183530	0.047107	99.000000
604.000000	604.570000	0.180607	0.048310	99.000000
605.000000	605.570000	0.179427	0.047890	99.000000
606.000000	606.570000	0.177718	0.051183	100.000000
607.000000	607.570000	0.177630	0.049366	99.000000
608.000000	608.570000	0.177754	0.050781	100.000000
609.000000	609.570000	0.175742	0.047665	99.000000
610.000000	610.570000	0.178796	0.050297	100.000000
611.000000	611.570000	0.176686	0.048154	99.000000
612.000000	612.570000	0.176981	0.049757	100.000000
613.000000	613.570000	0.177664	0.050762	100.000000
614.000000	614.570000	0.175831	0.050109	100.000000
615.000000	615.570000	0.176963	0.047059	100.000000
616.000000	616.570000	0.177898	0.049490	100.000000
617.000000	617.570000	0.175921	0.050364	100.000000
618.000000	618.570000	0.173563	0.046243	99.000000
619.000000	619.570000	0.170949	0.047255	99.000000
620.000000	620.570000	0.174321	0.047659	100.000000
621.000000	621.570000	0.169351	0.049907	99.000000
622.000000	622.570000	0.172613	0.048951	100.000000
623.000000	623.570000	0.166808	0.050844	100.000000
624.000000	624.570000	0.166701	0.047902	99.000000
625.000000	625.570000	0.163860	0.048434	100.000000
626.000000	626.570000	0.163088	0.048419	100.000000
627.000000	627.570000	0.161074	0.049956	100.000000
628.000000	628.570000	0.157444	0.048483	100.000000
629.000000	629.570000	0.156671	0.048625	100.000000
630.000000	630.570000	0.153956	0.047764	99.000000
631.000000	631.570000	0.154101	0.049378	100.000000
632.000000	632.570000	0.151027	0.047898	100.000000
633.000000	633.570000	0.147972	0.047484	100.000000
634.000000	634.570000	0.146313	0.045725	99.000000
635.000000	635.570000	0.148673	0.047271	100.000000
636.000000	636.570000	0.144642	0.045245	99.000000
637.000000	637.570000	0.143535	0.048340	99.000000
638.000000	638.570000	0.146947	0.047995	100.000000
639.000000	639.570000	0.144370	0.048123	99.000000
640.000000	640.570000	0.148206	0.048367	100.000000
641.000000	641.570000	0.147729	0.047291	99.000000
642.000000	642.570000	0.152740	0.046127	99.000000
643.000000	643.570000	0.156312	0.048587	100.000000
644.000000	644.570000	0.160104	0.046625	100.000000
645.000000	645.570000	0.161472	0.045896	99.000000
646.000000	646.570000	0.170025	0.047697	100.000000
647.000000	647.570000	0.174051	0.047606	100.000000
648.000000	648.570000	0.178320	0.045432	99.000000
649.000000	649.570000	0.188430	0.046064	100.000000
650.000000	650.570000	0.192753	0.044502	99.000000
651.000000	651.570000	0.201784	0.046636	100.000000
652.000000	652.570000	0.208312	0.045430	99.000000
653.000000	653.570000	0.217098	0.047764	100.000000
654.000000	654.570000	0.226030	0.047029	100.000000
655.000000	655.570000	0.233620	0.045381	99.000000
656.000000	656.570000	0.241245	0.045175	99.000000
657.000000	657.570000	0.250722	0.042497	99.000000
658.000000	658.570000	0.262013	0.046213	100.000000
659.000000	659.570000	0.267675	0.045987	100.000000
660.000000	660.570000	0.277219	0.045923	100.000000
661.000000	661.570000	0.285127	0.047102	100.000000
662.000000	662.570000	0.293646	0.045741	100.000000
663.000000	663.570000	0.299560	0.046491	100.000000
664.000000	664.570000	0.305239	0.046746	100.000000
665.000000	665.570000	0.312842	0.045234	100.000000
666.000000	666.570000	0.318234	0.045796	100.000000
667.000000	667.570000	0.324039	0.044329	100.000000
668.000000	668.570000	0.327245	0.043010	99.000000
669.000000	669.570000	0.330240	0.045009	100.000000
670.000000	670.570000	0.333422	0.045794	100.000000
671.000000	671.570000	0.335397	0.041743	99.000000
672.000000	672.570000	0.339445	0.041419	99.000000
673.000000	673.570000	0.342568	0.041835	99.000000
674.000000	674.570000	0.342895	0.042615	99.000000
675.000000	675.570000	0.348933	0.044528	100.000000
676.000000	676.570000	0.347379	0.042039	99.000000
677.000000	677.570000	0.350592	0.043955	99.000000
678.000000	678.570000	0.354586	0.044163	99.000000
679.000000	679.570000	0.357146	0.042275	99.000000
680.000000	680.570000	0.359789	0.045814	100.000000
681.000000	681.570000	0.362862	0.047387	100.000000
682.000000	682.570000	0.366241	0.044985	100.000000
683.000000	683.570000	0.371417	0.047437	100.000000
684.000000	684.570000	0.374521	0.044192	99.000000
685.000000	685.570000	0.382399	0.047230	100.000000
686.000000	686.570000	0.387557	0.046193	100.000000
687.000000	687.570000	0.391835	0.047047	100.000000
688.000000	688.570000	0.395466	0.048336	100.000000
689.000000	689.570000	0.403158	0.047529	100.000000
690.000000	690.570000	0.407290	0.045384	99.000000
691.000000	691.570000	0.413655	0.050181	100.000000
692.000000	692.570000	0.420575	0.048545	100.000000
693.000000	693.570000	0.429346	0.048577	100.000000
694.000000	694.570000	0.425985	0.048189	100.000000
695.000000	695.570000	0.436445	0.046574	100.000000
696.000000	696.570000	0.441837	0.047577	100.000000
697.000000	697.570000	0.452082	0.048104	100.000000
698.000000	698.570000	0.457726	0.046797	100.000000
699.000000	699.570000	0.463387	0.044314	100.000000
700.000000	700.570000	0.466730	0.044956	100.000000
701.000000	701.570000	0.469979	0.044267	99.000000
702.000000	702.570000	0.473650	0.046415	100.000000
703.000000	703.570000	0.478719	0.043913	100.000000
704.000000	704.570000	0.480606	0.047956	100.000000
705.000000	705.570000	0.483266	0.049346	100.000000
706.000000	706.570000	0.485495	0.048434	100.000000
707.000000	707.570000	0.483679	0.049353	100.000000
708.000000	708.570000	0.486897	0.049230	100.000000
709.000000	709.570000	0.486375	0.050660	100.000000
710.000000	710.570000	0.489179	0.049168	100.000000
711.000000	711.570000	0.487939	0.050203	100.000000
712.000000	712.570000	0.488928	0.048119	100.000000
713.000000	713.570000	0.486771	0.047218	100.000000
714.000000	714.570000	0.486267	0.047154	100.000000
715.000000	715.570000	0.480929	0.046838	100.000000
716.000000	716.570000	0.476526	0.046975	100.000000
717.000000	717.570000	0.472356	0.046569	100.000000
718.000000	718.570000	0.463154	0.047104	100.000000
719.000000	719.570000	0.453843	0.047039	100.000000

