LabVIEW Measurement	
Writer_Version	2
Reader_Version	2
Separator	Tab
Decimal_Separator	.
Multi_Headings	Yes
X_Columns	One
Time_Pref	Relative
Operator	zvar
Date	2019/11/28
Time	13:49:44.2228646278381347656
***End_of_Header***	
	
Channels	4				
Samples	720	720	720	720	
Date	2019/11/28	2019/11/28	2019/11/28	2019/11/28	
Time	13:49:44.2228646278381347656	13:49:44.2228646278381347656	13:49:44.2228646278381347656	13:49:44.2228646278381347656	
X_Dimension	Time	Time	Time	Time	
X0	0.0000000000000000E+0	0.0000000000000000E+0	0.0000000000000000E+0	0.0000000000000000E+0	
Delta_X	1.000000	1.000000	1.000000	1.000000	
***End_of_Header***					
X_Value	Untitled	Untitled 1	Untitled 2	Untitled 3	Comment
0.000000	0.570000	0.575423	0.041724	99.000000
1.000000	1.570000	0.563042	0.041521	99.000000
2.000000	2.570000	0.544555	0.044378	100.000000
3.000000	3.570000	0.526043	0.044672	100.000000
4.000000	4.570000	0.506344	0.044465	100.000000
5.000000	5.570000	0.485063	0.044970	100.000000
6.000000	6.570000	0.456539	0.044178	100.000000
7.000000	7.570000	0.429202	0.045542	100.000000
8.000000	8.570000	0.396670	0.042529	100.000000
9.000000	9.570000	0.364190	0.040747	99.000000
10.000000	10.570000	0.326017	0.045026	100.000000
11.000000	11.570000	0.289864	0.041842	99.000000
12.000000	12.570000	0.251265	0.043023	100.000000
13.000000	13.570000	0.212227	0.043738	100.000000
14.000000	14.570000	0.176595	0.042784	99.000000
15.000000	15.570000	0.138266	0.044874	100.000000
16.000000	16.570000	0.104756	0.041948	99.000000
17.000000	17.570000	0.071387	0.042474	99.000000
18.000000	18.570000	0.044849	0.040649	98.000000
19.000000	19.570000	0.016232	0.042858	99.000000
20.000000	20.570000	-0.006443	0.042130	99.000000
21.000000	21.570000	-0.021693	0.042222	99.000000
22.000000	22.570000	-0.037107	0.041842	99.000000
23.000000	23.570000	-0.046518	0.043571	100.000000
24.000000	24.570000	-0.050360	0.040986	99.000000
25.000000	25.570000	-0.052263	0.040407	98.000000
26.000000	26.570000	-0.056061	0.040420	99.000000
27.000000	27.570000	-0.056660	0.041761	99.000000
28.000000	28.570000	-0.057380	0.038982	98.000000
29.000000	29.570000	-0.056745	0.044829	100.000000
30.000000	30.570000	-0.053192	0.044644	99.000000
31.000000	31.570000	-0.049489	0.042278	99.000000
32.000000	32.570000	-0.045658	0.043224	99.000000
33.000000	33.570000	-0.039828	0.041708	98.000000
34.000000	34.570000	-0.040515	0.044457	100.000000
35.000000	35.570000	-0.034148	0.043222	99.000000
36.000000	36.570000	-0.031421	0.044179	100.000000
37.000000	37.570000	-0.025796	0.042035	99.000000
38.000000	38.570000	-0.021766	0.040809	99.000000
39.000000	39.570000	-0.018498	0.043887	99.000000
40.000000	40.570000	-0.014758	0.043222	99.000000
41.000000	41.570000	-0.012998	0.043340	100.000000
42.000000	42.570000	-0.009874	0.043982	99.000000
43.000000	43.570000	-0.007604	0.040518	98.000000
44.000000	44.570000	-0.008487	0.043370	100.000000
45.000000	45.570000	-0.004900	0.043960	99.000000
46.000000	46.570000	-0.001414	0.041898	99.000000
47.000000	47.570000	0.001218	0.041542	99.000000
48.000000	48.570000	-0.000884	0.044174	100.000000
49.000000	49.570000	0.004595	0.042740	99.000000
50.000000	50.570000	0.003933	0.046367	100.000000
51.000000	51.570000	0.004616	0.044760	100.000000
52.000000	52.570000	0.002888	0.040905	99.000000
53.000000	53.570000	0.003760	0.043212	99.000000
54.000000	54.570000	0.001382	0.044039	99.000000
55.000000	55.570000	-0.001711	0.044970	100.000000
56.000000	56.570000	0.000429	0.041960	98.000000
57.000000	57.570000	-0.002286	0.043615	99.000000
58.000000	58.570000	-0.006024	0.045877	100.000000
59.000000	59.570000	-0.008567	0.041597	99.000000
60.000000	60.570000	-0.011776	0.046458	100.000000
61.000000	61.570000	-0.014214	0.042881	99.000000
62.000000	62.570000	-0.015829	0.045589	99.000000
63.000000	63.570000	-0.017736	0.044633	99.000000
64.000000	64.570000	-0.024591	0.044772	100.000000
65.000000	65.570000	-0.025669	0.046071	100.000000
66.000000	66.570000	-0.027251	0.044624	100.000000
67.000000	67.570000	-0.031277	0.043271	100.000000
68.000000	68.570000	-0.033901	0.043856	100.000000
69.000000	69.570000	-0.032223	0.040310	99.000000
70.000000	70.570000	-0.033020	0.043209	100.000000
71.000000	71.570000	-0.035618	0.040459	99.000000
72.000000	72.570000	-0.036036	0.040483	99.000000
73.000000	73.570000	-0.039796	0.042168	100.000000
74.000000	74.570000	-0.039275	0.043385	100.000000
75.000000	75.570000	-0.038754	0.042866	100.000000
76.000000	76.570000	-0.039149	0.042268	100.000000
77.000000	77.570000	-0.036673	0.037511	98.000000
78.000000	78.570000	-0.037407	0.040613	98.000000
79.000000	79.570000	-0.037524	0.037984	99.000000
80.000000	80.570000	-0.036326	0.039016	99.000000
81.000000	81.570000	-0.040731	0.044207	100.000000
82.000000	82.570000	-0.040300	0.043996	100.000000
83.000000	83.570000	-0.039401	0.042909	100.000000
84.000000	84.570000	-0.036399	0.041614	99.000000
85.000000	85.570000	-0.038592	0.043431	100.000000
86.000000	86.570000	-0.036435	0.039802	99.000000
87.000000	87.570000	-0.037180	0.041981	99.000000
88.000000	88.570000	-0.036435	0.040051	99.000000
89.000000	89.570000	-0.037089	0.038540	99.000000
90.000000	90.570000	-0.033452	0.042928	100.000000
91.000000	91.570000	-0.034910	0.039903	99.000000
92.000000	92.570000	-0.034420	0.039162	99.000000
93.000000	93.570000	-0.034584	0.040281	100.000000
94.000000	94.570000	-0.032187	0.038646	99.000000
95.000000	95.570000	-0.032260	0.040320	99.000000
96.000000	96.570000	-0.029754	0.037712	99.000000
97.000000	97.570000	-0.031798	0.042258	100.000000
98.000000	98.570000	-0.030805	0.037198	98.000000
99.000000	99.570000	-0.029869	0.036476	98.000000
100.000000	100.570000	-0.031007	0.038501	99.000000
101.000000	101.570000	-0.033146	0.042210	100.000000
102.000000	102.570000	-0.030916	0.039627	99.000000
103.000000	103.570000	-0.030273	0.039105	98.000000
104.000000	104.570000	-0.032841	0.040965	100.000000
105.000000	105.570000	-0.032550	0.042452	99.000000
106.000000	106.570000	-0.030771	0.039615	99.000000
107.000000	107.570000	-0.027689	0.036239	97.000000
108.000000	108.570000	-0.032441	0.038079	99.000000
109.000000	109.570000	-0.031969	0.041872	99.000000
110.000000	110.570000	-0.034728	0.044634	100.000000
111.000000	111.570000	-0.034997	0.042742	100.000000
112.000000	112.570000	-0.031648	0.040283	98.000000
113.000000	113.570000	-0.034766	0.039534	98.000000
114.000000	114.570000	-0.035782	0.041053	99.000000
115.000000	115.570000	-0.036744	0.041904	99.000000
116.000000	116.570000	-0.036731	0.039645	97.000000
117.000000	117.570000	-0.034949	0.039184	98.000000
118.000000	118.570000	-0.038033	0.043212	99.000000
119.000000	119.570000	-0.036762	0.043881	99.000000
120.000000	120.570000	-0.035927	0.042304	99.000000
121.000000	121.570000	-0.033812	0.039314	98.000000
122.000000	122.570000	-0.038105	0.042451	99.000000
123.000000	123.570000	-0.033639	0.041453	99.000000
124.000000	124.570000	-0.036220	0.043091	100.000000
125.000000	125.570000	-0.036708	0.041721	99.000000
126.000000	126.570000	-0.036435	0.040314	99.000000
127.000000	127.570000	-0.037837	0.044107	100.000000
128.000000	128.570000	-0.037071	0.041407	99.000000
129.000000	129.570000	-0.037597	0.039457	99.000000
130.000000	130.570000	-0.037869	0.041547	99.000000
131.000000	131.570000	-0.037488	0.040630	99.000000
132.000000	132.570000	-0.037270	0.042152	99.000000
133.000000	133.570000	-0.037052	0.043426	99.000000
134.000000	134.570000	-0.039437	0.040608	100.000000
135.000000	135.570000	-0.035782	0.041954	99.000000
136.000000	136.570000	-0.036907	0.039733	99.000000
137.000000	137.570000	-0.035854	0.043671	99.000000
138.000000	138.570000	-0.036708	0.041854	99.000000
139.000000	139.570000	-0.037280	0.041766	100.000000
140.000000	140.570000	-0.038448	0.043896	100.000000
141.000000	141.570000	-0.036957	0.045304	100.000000
142.000000	142.570000	-0.036108	0.041825	99.000000
143.000000	143.570000	-0.035182	0.041964	99.000000
144.000000	144.570000	-0.035255	0.041834	99.000000
145.000000	145.570000	-0.035627	0.043681	100.000000
146.000000	146.570000	-0.036885	0.042573	100.000000
147.000000	147.570000	-0.033004	0.040604	99.000000
148.000000	148.570000	-0.034081	0.043298	100.000000
149.000000	149.570000	-0.032122	0.042385	100.000000
150.000000	150.570000	-0.030918	0.042176	100.000000
151.000000	151.570000	-0.027503	0.041732	99.000000
152.000000	152.570000	-0.029911	0.042695	100.000000
153.000000	153.570000	-0.029408	0.042137	100.000000
154.000000	154.570000	-0.029264	0.043865	100.000000
155.000000	155.570000	-0.027700	0.040248	100.000000
156.000000	156.570000	-0.027467	0.040469	100.000000
157.000000	157.570000	-0.026514	0.042340	100.000000
158.000000	158.570000	-0.023560	0.037987	98.000000
159.000000	159.570000	-0.025723	0.041267	100.000000
160.000000	160.570000	-0.025849	0.040997	100.000000
161.000000	161.570000	-0.024483	0.042425	100.000000
162.000000	162.570000	-0.022946	0.041564	99.000000
163.000000	163.570000	-0.020695	0.040410	99.000000
164.000000	164.570000	-0.027988	0.044107	100.000000
165.000000	165.570000	-0.023063	0.043239	100.000000
166.000000	166.570000	-0.022056	0.040827	99.000000
167.000000	167.570000	-0.022218	0.043391	100.000000
168.000000	168.570000	-0.019170	0.041503	99.000000
169.000000	169.570000	-0.020205	0.042316	100.000000
170.000000	170.570000	-0.016646	0.040202	99.000000
171.000000	171.570000	-0.016557	0.040863	100.000000
172.000000	172.570000	-0.016790	0.041614	100.000000
173.000000	173.570000	-0.013850	0.038804	99.000000
174.000000	174.570000	-0.013411	0.041306	100.000000
175.000000	175.570000	-0.012225	0.041377	100.000000
176.000000	176.570000	-0.011812	0.040665	100.000000
177.000000	177.570000	-0.010194	0.042231	100.000000
178.000000	178.570000	-0.006080	0.040303	99.000000
179.000000	179.570000	-0.005172	0.039317	99.000000
180.000000	180.570000	-0.005845	0.042324	100.000000
181.000000	181.570000	-0.005162	0.040982	100.000000
182.000000	182.570000	-0.002994	0.039750	99.000000
183.000000	183.570000	-0.001287	0.040031	99.000000
184.000000	184.570000	-0.002214	0.042757	100.000000
185.000000	185.570000	-0.002214	0.042924	100.000000
186.000000	186.570000	0.000824	0.041516	100.000000
187.000000	187.570000	0.002423	0.041423	100.000000
188.000000	188.570000	0.005497	0.041283	100.000000
189.000000	189.570000	0.003887	0.041168	99.000000
190.000000	190.570000	0.005101	0.042423	100.000000
191.000000	191.570000	0.006773	0.043373	100.000000
192.000000	192.570000	0.007671	0.043254	100.000000
193.000000	193.570000	0.010439	0.042283	100.000000
194.000000	194.570000	0.012470	0.045571	100.000000
195.000000	195.570000	0.015434	0.043367	99.000000
196.000000	196.570000	0.015364	0.045264	100.000000
197.000000	197.570000	0.015454	0.043637	100.000000
198.000000	198.570000	0.020397	0.045060	100.000000
199.000000	199.570000	0.020846	0.045328	100.000000
200.000000	200.570000	0.025074	0.041501	99.000000
201.000000	201.570000	0.028469	0.042222	99.000000
202.000000	202.570000	0.029509	0.042416	100.000000
203.000000	203.570000	0.032726	0.044215	100.000000
204.000000	204.570000	0.034757	0.043760	100.000000
205.000000	205.570000	0.038568	0.044302	100.000000
206.000000	206.570000	0.044518	0.042357	99.000000
207.000000	207.570000	0.044571	0.042929	100.000000
208.000000	208.570000	0.049583	0.043161	99.000000
209.000000	209.570000	0.054420	0.046647	100.000000
210.000000	210.570000	0.054312	0.044565	100.000000
211.000000	211.570000	0.055683	0.041832	99.000000
212.000000	212.570000	0.060204	0.043024	99.000000
213.000000	213.570000	0.061892	0.043961	99.000000
214.000000	214.570000	0.066050	0.044760	99.000000
215.000000	215.570000	0.066265	0.044737	100.000000
216.000000	216.570000	0.069518	0.045971	100.000000
217.000000	217.570000	0.074510	0.042793	99.000000
218.000000	218.570000	0.073975	0.045026	100.000000
219.000000	219.570000	0.075701	0.044697	100.000000
220.000000	220.570000	0.080895	0.043463	100.000000
221.000000	221.570000	0.085494	0.042448	99.000000
222.000000	222.570000	0.084687	0.046758	100.000000
223.000000	223.570000	0.086161	0.044116	100.000000
224.000000	224.570000	0.088983	0.045487	100.000000
225.000000	225.570000	0.091463	0.045379	100.000000
226.000000	226.570000	0.095166	0.044047	100.000000
227.000000	227.570000	0.096730	0.043275	100.000000
228.000000	228.570000	0.102050	0.043487	100.000000
229.000000	229.570000	0.106435	0.042726	100.000000
230.000000	230.570000	0.109059	0.042573	100.000000
231.000000	231.570000	0.112780	0.041941	100.000000
232.000000	232.570000	0.117201	0.043566	100.000000
233.000000	233.570000	0.120760	0.043793	100.000000
234.000000	234.570000	0.126422	0.043467	100.000000
235.000000	235.570000	0.127267	0.041849	100.000000
236.000000	236.570000	0.133665	0.042492	100.000000
237.000000	237.570000	0.136990	0.042783	100.000000
238.000000	238.570000	0.141825	0.044080	100.000000
239.000000	239.570000	0.146426	0.043067	100.000000
240.000000	240.570000	0.150201	0.041645	100.000000
241.000000	241.570000	0.151396	0.040482	99.000000
242.000000	242.570000	0.162416	0.040853	99.000000
243.000000	243.570000	0.164346	0.045901	100.000000
244.000000	244.570000	0.170331	0.043777	100.000000
245.000000	245.570000	0.176064	0.043305	100.000000
246.000000	246.570000	0.183487	0.043168	100.000000
247.000000	247.570000	0.191337	0.042612	99.000000
248.000000	248.570000	0.193842	0.040489	99.000000
249.000000	249.570000	0.202449	0.043573	100.000000
250.000000	250.570000	0.210000	0.040809	99.000000
251.000000	251.570000	0.216702	0.043763	100.000000
252.000000	252.570000	0.224628	0.043119	100.000000
253.000000	253.570000	0.231566	0.044489	100.000000
254.000000	254.570000	0.238037	0.042847	100.000000
255.000000	255.570000	0.248299	0.042524	100.000000
256.000000	256.570000	0.256876	0.042090	99.000000
257.000000	257.570000	0.264727	0.042615	100.000000
258.000000	258.570000	0.272366	0.043970	100.000000
259.000000	259.570000	0.282072	0.043965	100.000000
260.000000	260.570000	0.290753	0.044435	100.000000
261.000000	261.570000	0.302471	0.043711	100.000000
262.000000	262.570000	0.311566	0.044357	100.000000
263.000000	263.570000	0.323500	0.043300	100.000000
264.000000	264.570000	0.333601	0.042746	100.000000
265.000000	265.570000	0.344367	0.042413	100.000000
266.000000	266.570000	0.356122	0.042571	100.000000
267.000000	267.570000	0.370091	0.041059	99.000000
268.000000	268.570000	0.381123	0.045487	100.000000
269.000000	269.570000	0.391422	0.044612	100.000000
270.000000	270.570000	0.406034	0.046179	100.000000
271.000000	271.570000	0.422696	0.043133	100.000000
272.000000	272.570000	0.434073	0.043086	100.000000
273.000000	273.570000	0.451861	0.042662	99.000000
274.000000	274.570000	0.464915	0.045093	100.000000
275.000000	275.570000	0.482439	0.046150	100.000000
276.000000	276.570000	0.497070	0.046515	100.000000
277.000000	277.570000	0.515852	0.047650	100.000000
278.000000	278.570000	0.533717	0.044738	100.000000
279.000000	279.570000	0.549983	0.046500	100.000000
280.000000	280.570000	0.570527	0.045493	100.000000
281.000000	281.570000	0.588698	0.047303	100.000000
282.000000	282.570000	0.609008	0.046238	100.000000
283.000000	283.570000	0.633344	0.045435	100.000000
284.000000	284.570000	0.654481	0.044462	100.000000
285.000000	285.570000	0.676678	0.046018	100.000000
286.000000	286.570000	0.698749	0.048294	100.000000
287.000000	287.570000	0.726338	0.048347	100.000000
288.000000	288.570000	0.752418	0.047440	100.000000
289.000000	289.570000	0.779018	0.046057	100.000000
290.000000	290.570000	0.803678	0.048439	100.000000
291.000000	291.570000	0.836264	0.048142	100.000000
292.000000	292.570000	0.865938	0.048657	100.000000
293.000000	293.570000	0.897697	0.049531	100.000000
294.000000	294.570000	0.928899	0.051360	100.000000
295.000000	295.570000	0.964181	0.049224	100.000000
296.000000	296.570000	1.000253	0.051092	100.000000
297.000000	297.570000	1.037872	0.049794	100.000000
298.000000	298.570000	1.076083	0.053870	100.000000
299.000000	299.570000	1.116020	0.052811	100.000000
300.000000	300.570000	1.159084	0.053667	100.000000
301.000000	301.570000	1.200567	0.053034	100.000000
302.000000	302.570000	1.249077	0.055746	100.000000
303.000000	303.570000	1.294981	0.055150	100.000000
304.000000	304.570000	1.346583	0.056809	100.000000
305.000000	305.570000	1.395884	0.058126	100.000000
306.000000	306.570000	1.451889	0.059180	100.000000
307.000000	307.570000	1.511076	0.059186	100.000000
308.000000	308.570000	1.567962	0.060156	100.000000
309.000000	309.570000	1.630707	0.059352	100.000000
310.000000	310.570000	1.695016	0.061607	100.000000
311.000000	311.570000	1.763674	0.063569	100.000000
312.000000	312.570000	1.834831	0.064815	100.000000
313.000000	313.570000	1.909007	0.066528	100.000000
314.000000	314.570000	1.982339	0.068029	100.000000
315.000000	315.570000	2.064693	0.067121	100.000000
316.000000	316.570000	2.153949	0.066589	100.000000
317.000000	317.570000	2.240167	0.070632	100.000000
318.000000	318.570000	2.332047	0.072733	100.000000
319.000000	319.570000	2.428583	0.075152	100.000000
320.000000	320.570000	2.528227	0.073063	100.000000
321.000000	321.570000	2.636140	0.077278	100.000000
322.000000	322.570000	2.745148	0.080543	100.000000
323.000000	323.570000	2.858345	0.083186	100.000000
324.000000	324.570000	2.979540	0.086230	100.000000
325.000000	325.570000	3.101687	0.087666	100.000000
326.000000	326.570000	3.235265	0.091625	100.000000
327.000000	327.570000	3.368233	0.094125	100.000000
328.000000	328.570000	3.507850	0.094568	100.000000
329.000000	329.570000	3.654819	0.098925	100.000000
330.000000	330.570000	3.808474	0.102539	100.000000
331.000000	331.570000	3.962380	0.104286	100.000000
332.000000	332.570000	4.126064	0.108091	100.000000
333.000000	333.570000	4.294385	0.113884	100.000000
334.000000	334.570000	4.461376	0.115498	100.000000
335.000000	335.570000	4.645999	0.121304	100.000000
336.000000	336.570000	4.833965	0.122463	100.000000
337.000000	337.570000	5.027251	0.128593	100.000000
338.000000	338.570000	5.217643	0.130933	100.000000
339.000000	339.570000	5.427968	0.136891	100.000000
340.000000	340.570000	5.634339	0.138624	100.000000
341.000000	341.570000	5.842741	0.143999	100.000000
342.000000	342.570000	6.058080	0.149820	100.000000
343.000000	343.570000	6.278057	0.154530	100.000000
344.000000	344.570000	6.498770	0.159137	100.000000
345.000000	345.570000	6.725792	0.163975	100.000000
346.000000	346.570000	6.955007	0.170794	100.000000
347.000000	347.570000	7.193263	0.178896	100.000000
348.000000	348.570000	7.434700	0.189909	100.000000
349.000000	349.570000	7.690318	0.204037	100.000000
350.000000	350.570000	7.951472	0.223775	100.000000
351.000000	351.570000	8.237213	0.249902	100.000000
352.000000	352.570000	8.526711	0.283929	100.000000
353.000000	353.570000	8.845415	0.327303	100.000000
354.000000	354.570000	9.177672	0.384600	100.000000
355.000000	355.570000	9.539710	0.451839	100.000000
356.000000	356.570000	9.925276	0.531219	100.000000
357.000000	357.570000	10.335106	0.618143	100.000000
358.000000	358.570000	10.767798	0.714227	100.000000
359.000000	359.570000	11.224772	0.819410	100.000000
360.000000	360.570000	11.701193	0.929804	100.000000
361.000000	361.570000	12.188399	1.045006	100.000000
362.000000	362.570000	12.681158	1.161111	100.000000
363.000000	363.570000	13.174474	1.276370	100.000000
364.000000	364.570000	13.673829	1.389882	100.000000
365.000000	365.570000	14.165007	1.499348	100.000000
366.000000	366.570000	14.649265	1.597326	100.000000
367.000000	367.570000	15.108162	1.681118	100.000000
368.000000	368.570000	15.554855	1.753329	100.000000
369.000000	369.570000	15.965727	1.807992	100.000000
370.000000	370.570000	16.343565	1.839798	100.000000
371.000000	371.570000	16.665684	1.849070	100.000000
372.000000	372.570000	16.940264	1.838082	100.000000
373.000000	373.570000	17.153501	1.802846	100.000000
374.000000	374.570000	17.309348	1.754817	100.000000
375.000000	375.570000	17.401390	1.687776	100.000000
376.000000	376.570000	17.433724	1.607489	100.000000
377.000000	377.570000	17.399359	1.514987	100.000000
378.000000	378.570000	17.303704	1.415907	100.000000
379.000000	379.570000	17.154974	1.308976	100.000000
380.000000	380.570000	16.955038	1.200148	100.000000
381.000000	381.570000	16.705585	1.082815	100.000000
382.000000	382.570000	16.423205	0.971650	100.000000
383.000000	383.570000	16.106783	0.864945	100.000000
384.000000	384.570000	15.786651	0.734823	99.000000
385.000000	385.570000	15.414965	0.647470	99.000000
386.000000	386.570000	15.032440	0.570692	99.000000
387.000000	387.570000	14.629036	0.506105	99.000000
388.000000	388.570000	14.223255	0.452085	99.000000
389.000000	389.570000	13.809412	0.410139	99.000000
390.000000	390.570000	13.384116	0.394698	100.000000
391.000000	391.570000	12.970440	0.371772	100.000000
392.000000	392.570000	12.564708	0.354946	100.000000
393.000000	393.570000	12.165231	0.347965	100.000000
394.000000	394.570000	11.759122	0.339865	100.000000
395.000000	395.570000	11.370986	0.336700	100.000000
396.000000	396.570000	10.987541	0.333021	100.000000
397.000000	397.570000	10.618295	0.331276	100.000000
398.000000	398.570000	10.255052	0.327298	100.000000
399.000000	399.570000	9.909190	0.326650	100.000000
400.000000	400.570000	9.566401	0.325005	100.000000
401.000000	401.570000	9.236301	0.321255	100.000000
402.000000	402.570000	8.923222	0.315342	100.000000
403.000000	403.570000	8.615248	0.310668	100.000000
404.000000	404.570000	8.319909	0.304442	100.000000
405.000000	405.570000	8.035246	0.297507	100.000000
406.000000	406.570000	7.762104	0.293105	100.000000
407.000000	407.570000	7.502100	0.286217	100.000000
408.000000	408.570000	7.247417	0.277185	100.000000
409.000000	409.570000	7.005980	0.272965	100.000000
410.000000	410.570000	6.771373	0.263050	100.000000
411.000000	411.570000	6.550246	0.257366	100.000000
412.000000	412.570000	6.340047	0.250984	100.000000
413.000000	413.570000	6.134701	0.246298	100.000000
414.000000	414.570000	5.938431	0.238654	100.000000
415.000000	415.570000	5.752065	0.232601	100.000000
416.000000	416.570000	5.576752	0.223986	100.000000
417.000000	417.570000	5.402356	0.216845	100.000000
418.000000	418.570000	5.239643	0.212502	100.000000
419.000000	419.570000	5.080272	0.207251	100.000000
420.000000	420.570000	4.927966	0.202143	100.000000
421.000000	421.570000	4.784502	0.194057	100.000000
422.000000	422.570000	4.645801	0.190391	100.000000
423.000000	423.570000	4.509742	0.185233	100.000000
424.000000	424.570000	4.379255	0.180224	100.000000
425.000000	425.570000	4.255850	0.176413	100.000000
426.000000	426.570000	4.137513	0.170993	100.000000
427.000000	427.570000	4.026311	0.164940	100.000000
428.000000	428.570000	3.909020	0.155042	99.000000
429.000000	429.570000	3.805664	0.150011	99.000000
430.000000	430.570000	3.710123	0.150571	100.000000
431.000000	431.570000	3.609390	0.143607	99.000000
432.000000	432.570000	3.513224	0.137448	99.000000
433.000000	433.570000	3.427459	0.134106	99.000000
434.000000	434.570000	3.340533	0.130337	99.000000
435.000000	435.570000	3.257638	0.128411	99.000000
436.000000	436.570000	3.177756	0.126178	99.000000
437.000000	437.570000	3.102994	0.122384	99.000000
438.000000	438.570000	3.023620	0.118627	99.000000
439.000000	439.570000	2.954559	0.115125	99.000000
440.000000	440.570000	2.886587	0.113136	99.000000
441.000000	441.570000	2.821265	0.107062	99.000000
442.000000	442.570000	2.756924	0.104939	99.000000
443.000000	443.570000	2.701275	0.106796	100.000000
444.000000	444.570000	2.643329	0.105561	100.000000
445.000000	445.570000	2.583562	0.098694	99.000000
446.000000	446.570000	2.533062	0.101974	100.000000
447.000000	447.570000	2.476393	0.094288	99.000000
448.000000	448.570000	2.428331	0.098063	100.000000
449.000000	449.570000	2.381348	0.096708	100.000000
450.000000	450.570000	2.329944	0.095617	100.000000
451.000000	451.570000	2.285981	0.092635	100.000000
452.000000	452.570000	2.240958	0.089483	100.000000
453.000000	453.570000	2.197786	0.090256	100.000000
454.000000	454.570000	2.159053	0.086432	100.000000
455.000000	455.570000	2.118110	0.085792	100.000000
456.000000	456.570000	2.076771	0.086507	100.000000
457.000000	457.570000	2.041022	0.086159	100.000000
458.000000	458.570000	2.003278	0.083281	100.000000
459.000000	459.570000	1.970135	0.082707	100.000000
460.000000	460.570000	1.934691	0.081479	100.000000
461.000000	461.570000	1.901296	0.082399	100.000000
462.000000	462.570000	1.870760	0.082007	100.000000
463.000000	463.570000	1.839576	0.081262	100.000000
464.000000	464.570000	1.810010	0.080422	100.000000
465.000000	465.570000	1.781899	0.079963	100.000000
466.000000	466.570000	1.751740	0.079137	100.000000
467.000000	467.570000	1.724528	0.076858	100.000000
468.000000	468.570000	1.700300	0.074925	100.000000
469.000000	469.570000	1.674831	0.077089	100.000000
470.000000	470.570000	1.651933	0.073397	100.000000
471.000000	471.570000	1.629359	0.072746	100.000000
472.000000	472.570000	1.604304	0.071968	100.000000
473.000000	473.570000	1.582214	0.072544	100.000000
474.000000	474.570000	1.564061	0.070905	100.000000
475.000000	475.570000	1.542547	0.069514	100.000000
476.000000	476.570000	1.523280	0.070064	100.000000
477.000000	477.570000	1.503293	0.068748	100.000000
478.000000	478.570000	1.483720	0.069232	100.000000
479.000000	479.570000	1.464507	0.070834	100.000000
480.000000	480.570000	1.446821	0.068420	100.000000
481.000000	481.570000	1.427122	0.067875	100.000000
482.000000	482.570000	1.410892	0.067812	100.000000
483.000000	483.570000	1.394626	0.068236	100.000000
484.000000	484.570000	1.378899	0.067558	100.000000
485.000000	485.570000	1.363837	0.067287	100.000000
486.000000	486.570000	1.350699	0.067076	100.000000
487.000000	487.570000	1.335260	0.066523	100.000000
488.000000	488.570000	1.320342	0.066147	100.000000
489.000000	489.570000	1.307077	0.066260	100.000000
490.000000	490.570000	1.293525	0.064590	100.000000
491.000000	491.570000	1.279147	0.063251	100.000000
492.000000	492.570000	1.266098	0.063249	100.000000
493.000000	493.570000	1.254272	0.063293	100.000000
494.000000	494.570000	1.242050	0.062137	100.000000
495.000000	495.570000	1.228084	0.062218	100.000000
496.000000	496.570000	1.214006	0.059348	99.000000
497.000000	497.570000	1.205096	0.060969	100.000000
498.000000	498.570000	1.194114	0.061440	100.000000
499.000000	499.570000	1.180832	0.061879	100.000000
500.000000	500.570000	1.169042	0.057404	100.000000
501.000000	501.570000	1.158617	0.059296	100.000000
502.000000	502.570000	1.145245	0.058868	100.000000
503.000000	503.570000	1.134353	0.057552	100.000000
504.000000	504.570000	1.121124	0.057802	100.000000
505.000000	505.570000	1.106872	0.057906	100.000000
506.000000	506.570000	1.095602	0.058517	100.000000
507.000000	507.570000	1.081673	0.056359	100.000000
508.000000	508.570000	1.069379	0.057313	100.000000
509.000000	509.570000	1.054892	0.058266	100.000000
510.000000	510.570000	1.040424	0.057513	100.000000
511.000000	511.570000	1.027717	0.056304	100.000000
512.000000	512.570000	1.014776	0.058102	100.000000
513.000000	513.570000	1.000595	0.055739	100.000000
514.000000	514.570000	0.982131	0.054022	99.000000
515.000000	515.570000	0.970633	0.058020	100.000000
516.000000	516.570000	0.955320	0.057449	100.000000
517.000000	517.570000	0.939899	0.055971	100.000000
518.000000	518.570000	0.924999	0.054670	100.000000
519.000000	519.570000	0.908014	0.055026	100.000000
520.000000	520.570000	0.894606	0.055044	100.000000
521.000000	521.570000	0.877585	0.054405	100.000000
522.000000	522.570000	0.860690	0.054385	100.000000
523.000000	523.570000	0.844801	0.050847	100.000000
524.000000	524.570000	0.821921	0.052896	100.000000
525.000000	525.570000	0.809483	0.050857	100.000000
526.000000	526.570000	0.790468	0.051501	100.000000
527.000000	527.570000	0.777077	0.050924	100.000000
528.000000	528.570000	0.762357	0.051450	100.000000
529.000000	529.570000	0.744995	0.051249	100.000000
530.000000	530.570000	0.728711	0.051604	100.000000
531.000000	531.570000	0.713362	0.050994	100.000000
532.000000	532.570000	0.699181	0.052021	100.000000
533.000000	533.570000	0.683238	0.050208	100.000000
534.000000	534.570000	0.667386	0.049184	100.000000
535.000000	535.570000	0.653169	0.049937	100.000000
536.000000	536.570000	0.639760	0.049110	100.000000
537.000000	537.570000	0.623890	0.048022	100.000000
538.000000	538.570000	0.610140	0.049610	100.000000
539.000000	539.570000	0.597325	0.047535	100.000000
540.000000	540.570000	0.585768	0.049008	100.000000
541.000000	541.570000	0.573277	0.048037	100.000000
542.000000	542.570000	0.562406	0.046119	99.000000
543.000000	543.570000	0.549642	0.047946	100.000000
544.000000	544.570000	0.539433	0.047171	100.000000
545.000000	545.570000	0.530284	0.047945	100.000000
546.000000	546.570000	0.519608	0.046543	100.000000
547.000000	547.570000	0.513785	0.048664	100.000000
548.000000	548.570000	0.503576	0.045306	100.000000
549.000000	549.570000	0.497447	0.044756	100.000000
550.000000	550.570000	0.488784	0.043968	100.000000
551.000000	551.570000	0.483104	0.044081	100.000000
552.000000	552.570000	0.476760	0.044275	100.000000
553.000000	553.570000	0.472721	0.042813	99.000000
554.000000	554.570000	0.465922	0.043877	100.000000
555.000000	555.570000	0.461284	0.044171	100.000000
556.000000	556.570000	0.460062	0.042647	100.000000
557.000000	557.570000	0.456345	0.042550	99.000000
558.000000	558.570000	0.454657	0.042642	99.000000
559.000000	559.570000	0.453259	0.042059	99.000000
560.000000	560.570000	0.447283	0.042519	100.000000
561.000000	561.570000	0.448040	0.039129	98.000000
562.000000	562.570000	0.442017	0.044457	100.000000
563.000000	563.570000	0.439519	0.045638	100.000000
564.000000	564.570000	0.439644	0.043937	100.000000
565.000000	565.570000	0.438481	0.044396	99.000000
566.000000	566.570000	0.437146	0.040992	98.000000
567.000000	567.570000	0.435439	0.042640	100.000000
568.000000	568.570000	0.435367	0.040109	98.000000
569.000000	569.570000	0.432798	0.041196	99.000000
570.000000	570.570000	0.431662	0.039467	98.000000
571.000000	571.570000	0.430383	0.040374	99.000000
572.000000	572.570000	0.431600	0.040816	99.000000
573.000000	573.570000	0.430002	0.042450	99.000000
574.000000	574.570000	0.426970	0.039828	99.000000
575.000000	575.570000	0.427824	0.040910	99.000000
576.000000	576.570000	0.426099	0.040492	99.000000
577.000000	577.570000	0.423235	0.044704	100.000000
578.000000	578.570000	0.422552	0.041977	100.000000
579.000000	579.570000	0.422867	0.041560	99.000000
580.000000	580.570000	0.417064	0.040586	98.000000
581.000000	581.570000	0.420126	0.040800	99.000000
582.000000	582.570000	0.419563	0.039661	99.000000
583.000000	583.570000	0.418837	0.040929	99.000000
584.000000	584.570000	0.416749	0.040684	99.000000
585.000000	585.570000	0.413601	0.042701	100.000000
586.000000	586.570000	0.414861	0.042032	99.000000
587.000000	587.570000	0.412646	0.043834	99.000000
588.000000	588.570000	0.411855	0.040003	98.000000
589.000000	589.570000	0.407562	0.044877	100.000000
590.000000	590.570000	0.409814	0.044232	99.000000
591.000000	591.570000	0.407308	0.043297	99.000000
592.000000	592.570000	0.407893	0.042055	98.000000
593.000000	593.570000	0.406481	0.041106	98.000000
594.000000	594.570000	0.403677	0.044357	99.000000
595.000000	595.570000	0.404886	0.042585	98.000000
596.000000	596.570000	0.405275	0.043487	99.000000
597.000000	597.570000	0.403441	0.043405	99.000000
598.000000	598.570000	0.408169	0.044363	98.000000
599.000000	599.570000	0.405765	0.044084	99.000000
600.000000	600.570000	0.405566	0.043170	99.000000
601.000000	601.570000	0.407307	0.041783	98.000000
602.000000	602.570000	0.409452	0.042888	98.000000
603.000000	603.570000	0.407508	0.040920	98.000000
604.000000	604.570000	0.408343	0.044354	99.000000
605.000000	605.570000	0.410865	0.041331	98.000000
606.000000	606.570000	0.410903	0.042684	99.000000
607.000000	607.570000	0.412662	0.041790	98.000000
608.000000	608.570000	0.412428	0.044701	99.000000
609.000000	609.570000	0.415046	0.042660	98.000000
610.000000	610.570000	0.415297	0.042491	99.000000
611.000000	611.570000	0.413026	0.047063	100.000000
612.000000	612.570000	0.417834	0.041922	98.000000
613.000000	613.570000	0.418494	0.041593	98.000000
614.000000	614.570000	0.418659	0.043905	98.000000
615.000000	615.570000	0.417797	0.042931	98.000000
616.000000	616.570000	0.418619	0.043092	99.000000
617.000000	617.570000	0.422621	0.040964	98.000000
618.000000	618.570000	0.420053	0.043487	99.000000
619.000000	619.570000	0.419454	0.043847	99.000000
620.000000	620.570000	0.417321	0.044779	100.000000
621.000000	621.570000	0.421487	0.044089	99.000000
622.000000	622.570000	0.421796	0.044593	99.000000
623.000000	623.570000	0.421777	0.041150	98.000000
624.000000	624.570000	0.421070	0.044627	99.000000
625.000000	625.570000	0.421233	0.044330	99.000000
626.000000	626.570000	0.424029	0.041896	99.000000
627.000000	627.570000	0.427134	0.043742	99.000000
628.000000	628.570000	0.427333	0.043873	99.000000
629.000000	629.570000	0.428060	0.042953	99.000000
630.000000	630.570000	0.430983	0.041946	99.000000
631.000000	631.570000	0.431945	0.042832	99.000000
632.000000	632.570000	0.433270	0.042025	99.000000
633.000000	633.570000	0.432635	0.045442	100.000000
634.000000	634.570000	0.437092	0.046048	100.000000
635.000000	635.570000	0.438728	0.046684	100.000000
636.000000	636.570000	0.442466	0.045471	100.000000
637.000000	637.570000	0.447013	0.043738	99.000000
638.000000	638.570000	0.450045	0.044319	99.000000
639.000000	639.570000	0.455891	0.045479	99.000000
640.000000	640.570000	0.457762	0.045825	100.000000
641.000000	641.570000	0.461949	0.045978	100.000000
642.000000	642.570000	0.467601	0.045098	99.000000
643.000000	643.570000	0.471044	0.046704	100.000000
644.000000	644.570000	0.478676	0.045618	99.000000
645.000000	645.570000	0.484467	0.046804	99.000000
646.000000	646.570000	0.487651	0.046172	100.000000
647.000000	647.570000	0.496014	0.046319	99.000000
648.000000	648.570000	0.501132	0.048118	100.000000
649.000000	649.570000	0.505571	0.047873	100.000000
650.000000	650.570000	0.513497	0.048176	100.000000
651.000000	651.570000	0.519986	0.048994	100.000000
652.000000	652.570000	0.526913	0.045694	99.000000
653.000000	653.570000	0.534048	0.045087	99.000000
654.000000	654.570000	0.541492	0.044163	99.000000
655.000000	655.570000	0.546158	0.045049	99.000000
656.000000	656.570000	0.551583	0.046842	100.000000
657.000000	657.570000	0.556382	0.046375	100.000000
658.000000	658.570000	0.560534	0.045839	100.000000
659.000000	659.570000	0.564686	0.046051	100.000000
660.000000	660.570000	0.569323	0.047780	100.000000
661.000000	661.570000	0.572630	0.045325	100.000000
662.000000	662.570000	0.578831	0.046328	100.000000
663.000000	663.570000	0.582195	0.044280	99.000000
664.000000	664.570000	0.584816	0.046648	100.000000
665.000000	665.570000	0.588894	0.044697	99.000000
666.000000	666.570000	0.590280	0.045457	100.000000
667.000000	667.570000	0.594737	0.045261	100.000000
668.000000	668.570000	0.596139	0.047971	100.000000
669.000000	669.570000	0.597199	0.045503	100.000000
670.000000	670.570000	0.598771	0.043011	99.000000
671.000000	671.570000	0.601010	0.048401	100.000000
672.000000	672.570000	0.603201	0.045770	99.000000
673.000000	673.570000	0.604326	0.047176	99.000000
674.000000	674.570000	0.602969	0.046969	100.000000
675.000000	675.570000	0.605942	0.046099	99.000000
676.000000	676.570000	0.608187	0.045165	98.000000
677.000000	677.570000	0.610045	0.044309	99.000000
678.000000	678.570000	0.606833	0.049371	100.000000
679.000000	679.570000	0.607247	0.046503	100.000000
680.000000	680.570000	0.612133	0.045393	99.000000
681.000000	681.570000	0.611342	0.044422	98.000000
682.000000	682.570000	0.613549	0.045386	99.000000
683.000000	683.570000	0.612926	0.047872	100.000000
684.000000	684.570000	0.613476	0.042805	99.000000
685.000000	685.570000	0.617995	0.046607	100.000000
686.000000	686.570000	0.619322	0.045751	99.000000
687.000000	687.570000	0.618759	0.045415	99.000000
688.000000	688.570000	0.620647	0.044378	99.000000
689.000000	689.570000	0.623189	0.043568	98.000000
690.000000	690.570000	0.623495	0.046908	100.000000
691.000000	691.570000	0.625112	0.048789	100.000000
692.000000	692.570000	0.626748	0.045783	99.000000
693.000000	693.570000	0.630163	0.049748	100.000000
694.000000	694.570000	0.622753	0.045955	99.000000
695.000000	695.570000	0.629174	0.048482	100.000000
696.000000	696.570000	0.632373	0.046459	100.000000
697.000000	697.570000	0.634243	0.045592	100.000000
698.000000	698.570000	0.638766	0.045488	99.000000
699.000000	699.570000	0.640659	0.046504	100.000000
700.000000	700.570000	0.643105	0.046388	99.000000
701.000000	701.570000	0.644122	0.044842	99.000000
702.000000	702.570000	0.643715	0.048323	100.000000
703.000000	703.570000	0.642600	0.047719	100.000000
704.000000	704.570000	0.646264	0.044322	99.000000
705.000000	705.570000	0.647263	0.045021	99.000000
706.000000	706.570000	0.646968	0.044720	100.000000
707.000000	707.570000	0.647507	0.045276	100.000000
708.000000	708.570000	0.648497	0.042761	99.000000
709.000000	709.570000	0.650476	0.043559	99.000000
710.000000	710.570000	0.648588	0.043520	99.000000
711.000000	711.570000	0.647027	0.043824	99.000000
712.000000	712.570000	0.645520	0.045276	99.000000
713.000000	713.570000	0.642618	0.045025	100.000000
714.000000	714.570000	0.639020	0.041526	99.000000
715.000000	715.570000	0.631816	0.044174	100.000000
716.000000	716.570000	0.625274	0.043355	100.000000
717.000000	717.570000	0.615019	0.042018	99.000000
718.000000	718.570000	0.604689	0.041577	99.000000
719.000000	719.570000	0.593397	0.042329	99.000000

