LabVIEW Measurement	
Writer_Version	2
Reader_Version	2
Separator	Tab
Decimal_Separator	.
Multi_Headings	Yes
X_Columns	One
Time_Pref	Relative
Operator	zvar
Date	2019/11/28
Time	14:02:57.5111851692199707031
***End_of_Header***	
	
Channels	4				
Samples	720	720	720	720	
Date	2019/11/28	2019/11/28	2019/11/28	2019/11/28	
Time	14:02:57.5111851692199707031	14:02:57.5111851692199707031	14:02:57.5111851692199707031	14:02:57.5111851692199707031	
X_Dimension	Time	Time	Time	Time	
X0	0.0000000000000000E+0	0.0000000000000000E+0	0.0000000000000000E+0	0.0000000000000000E+0	
Delta_X	1.000000	1.000000	1.000000	1.000000	
***End_of_Header***					
X_Value	Untitled	Untitled 1	Untitled 2	Untitled 3	Comment
0.000000	0.570000	0.620205	0.073900	100.000000
1.000000	1.570000	0.604389	0.073534	100.000000
2.000000	2.570000	0.585499	0.071326	99.000000
3.000000	3.570000	0.568568	0.072515	100.000000
4.000000	4.570000	0.546539	0.069943	99.000000
5.000000	5.570000	0.527876	0.074642	100.000000
6.000000	6.570000	0.503432	0.073955	100.000000
7.000000	7.570000	0.475753	0.073085	100.000000
8.000000	8.570000	0.441113	0.069983	99.000000
9.000000	9.570000	0.407835	0.069956	99.000000
10.000000	10.570000	0.375515	0.072210	100.000000
11.000000	11.570000	0.338041	0.071468	100.000000
12.000000	12.570000	0.296509	0.068476	99.000000
13.000000	13.570000	0.258529	0.070185	99.000000
14.000000	14.570000	0.225222	0.072301	100.000000
15.000000	15.570000	0.188232	0.073953	100.000000
16.000000	16.570000	0.148673	0.070178	99.000000
17.000000	17.570000	0.113804	0.070468	100.000000
18.000000	18.570000	0.082531	0.072694	100.000000
19.000000	19.570000	0.052012	0.072424	100.000000
20.000000	20.570000	0.023919	0.071121	100.000000
21.000000	21.570000	-0.002068	0.069765	99.000000
22.000000	22.570000	-0.023382	0.068209	99.000000
23.000000	23.570000	-0.039707	0.073146	100.000000
24.000000	24.570000	-0.052611	0.072421	100.000000
25.000000	25.570000	-0.066010	0.068355	99.000000
26.000000	26.570000	-0.072364	0.072860	100.000000
27.000000	27.570000	-0.078555	0.068008	99.000000
28.000000	28.570000	-0.079518	0.073762	100.000000
29.000000	29.570000	-0.082250	0.071806	100.000000
30.000000	30.570000	-0.081908	0.071658	100.000000
31.000000	31.570000	-0.083438	0.071460	99.000000
32.000000	32.570000	-0.082861	0.072741	100.000000
33.000000	33.570000	-0.079572	0.071956	100.000000
34.000000	34.570000	-0.073317	0.072286	100.000000
35.000000	35.570000	-0.072763	0.067499	99.000000
36.000000	36.570000	-0.067044	0.071304	100.000000
37.000000	37.570000	-0.066209	0.068279	99.000000
38.000000	38.570000	-0.061077	0.073637	100.000000
39.000000	39.570000	-0.059495	0.075274	100.000000
40.000000	40.570000	-0.057932	0.073584	100.000000
41.000000	41.570000	-0.055972	0.071826	100.000000
42.000000	42.570000	-0.055272	0.075074	100.000000
43.000000	43.570000	-0.055577	0.076285	100.000000
44.000000	44.570000	-0.050077	0.073331	100.000000
45.000000	45.570000	-0.047383	0.070462	99.000000
46.000000	46.570000	-0.042241	0.070334	100.000000
47.000000	47.570000	-0.044595	0.071266	100.000000
48.000000	48.570000	-0.043068	0.072744	100.000000
49.000000	49.570000	-0.040407	0.072919	100.000000
50.000000	50.570000	-0.036687	0.071872	100.000000
51.000000	51.570000	-0.036705	0.070387	100.000000
52.000000	52.570000	-0.032122	0.071568	100.000000
53.000000	53.570000	-0.029767	0.071673	100.000000
54.000000	54.570000	-0.029030	0.072106	100.000000
55.000000	55.570000	-0.025923	0.070868	99.000000
56.000000	56.570000	-0.025179	0.070824	99.000000
57.000000	57.570000	-0.021050	0.072097	100.000000
58.000000	58.570000	-0.022165	0.070097	99.000000
59.000000	59.570000	-0.024707	0.070156	99.000000
60.000000	60.570000	-0.019253	0.072515	100.000000
61.000000	61.570000	-0.018750	0.070668	100.000000
62.000000	62.570000	-0.017168	0.074098	100.000000
63.000000	63.570000	-0.018929	0.073191	100.000000
64.000000	64.570000	-0.021131	0.069548	99.000000
65.000000	65.570000	-0.019379	0.072128	100.000000
66.000000	66.570000	-0.020511	0.069630	100.000000
67.000000	67.570000	-0.024398	0.070861	99.000000
68.000000	68.570000	-0.021967	0.071247	100.000000
69.000000	69.570000	-0.027485	0.067125	99.000000
70.000000	70.570000	-0.026137	0.072656	100.000000
71.000000	71.570000	-0.030771	0.071027	99.000000
72.000000	72.570000	-0.031367	0.074371	100.000000
73.000000	73.570000	-0.033811	0.072970	100.000000
74.000000	74.570000	-0.034602	0.073866	100.000000
75.000000	75.570000	-0.039940	0.075101	100.000000
76.000000	76.570000	-0.040192	0.070334	100.000000
77.000000	77.570000	-0.042007	0.071587	100.000000
78.000000	78.570000	-0.045170	0.070878	100.000000
79.000000	79.570000	-0.048603	0.073862	100.000000
80.000000	80.570000	-0.049161	0.073390	100.000000
81.000000	81.570000	-0.050185	0.072151	100.000000
82.000000	82.570000	-0.050239	0.072807	100.000000
83.000000	83.570000	-0.057313	0.069096	99.000000
84.000000	84.570000	-0.055182	0.072535	100.000000
85.000000	85.570000	-0.057608	0.072657	100.000000
86.000000	86.570000	-0.057985	0.072192	100.000000
87.000000	87.570000	-0.057213	0.073935	100.000000
88.000000	88.570000	-0.059963	0.073707	100.000000
89.000000	89.570000	-0.061543	0.069074	99.000000
90.000000	90.570000	-0.060502	0.072670	100.000000
91.000000	91.570000	-0.056763	0.070660	100.000000
92.000000	92.570000	-0.059927	0.071564	100.000000
93.000000	93.570000	-0.061508	0.071976	100.000000
94.000000	94.570000	-0.060835	0.068493	99.000000
95.000000	95.570000	-0.056655	0.070583	100.000000
96.000000	96.570000	-0.056817	0.072455	100.000000
97.000000	97.570000	-0.057698	0.071753	100.000000
98.000000	98.570000	-0.057626	0.071304	100.000000
99.000000	99.570000	-0.058057	0.072406	100.000000
100.000000	100.570000	-0.055865	0.071531	100.000000
101.000000	101.570000	-0.056476	0.073354	100.000000
102.000000	102.570000	-0.058475	0.067947	99.000000
103.000000	103.570000	-0.054606	0.071169	100.000000
104.000000	104.570000	-0.054971	0.070085	99.000000
105.000000	105.570000	-0.058893	0.070450	99.000000
106.000000	106.570000	-0.053870	0.071690	100.000000
107.000000	107.570000	-0.053959	0.072129	100.000000
108.000000	108.570000	-0.056841	0.067873	99.000000
109.000000	109.570000	-0.053258	0.073680	100.000000
110.000000	110.570000	-0.054409	0.071979	100.000000
111.000000	111.570000	-0.051749	0.072177	100.000000
112.000000	112.570000	-0.053187	0.072204	100.000000
113.000000	113.570000	-0.053959	0.072185	100.000000
114.000000	114.570000	-0.050203	0.072877	100.000000
115.000000	115.570000	-0.051192	0.070806	100.000000
116.000000	116.570000	-0.051030	0.073689	100.000000
117.000000	117.570000	-0.049053	0.072380	100.000000
118.000000	118.570000	-0.051515	0.072469	100.000000
119.000000	119.570000	-0.051641	0.074996	100.000000
120.000000	120.570000	-0.055534	0.069623	99.000000
121.000000	121.570000	-0.049700	0.072841	100.000000
122.000000	122.570000	-0.053156	0.069161	99.000000
123.000000	123.570000	-0.050940	0.073153	100.000000
124.000000	124.570000	-0.051353	0.072871	100.000000
125.000000	125.570000	-0.052378	0.070899	100.000000
126.000000	126.570000	-0.051227	0.074576	100.000000
127.000000	127.570000	-0.049340	0.072414	100.000000
128.000000	128.570000	-0.050455	0.072006	100.000000
129.000000	129.570000	-0.049232	0.073544	100.000000
130.000000	130.570000	-0.049250	0.072786	100.000000
131.000000	131.570000	-0.049862	0.073694	100.000000
132.000000	132.570000	-0.049430	0.072816	100.000000
133.000000	133.570000	-0.047597	0.072987	100.000000
134.000000	134.570000	-0.047561	0.071506	100.000000
135.000000	135.570000	-0.045278	0.075057	100.000000
136.000000	136.570000	-0.049053	0.069817	99.000000
137.000000	137.570000	-0.045907	0.074728	100.000000
138.000000	138.570000	-0.046177	0.073213	100.000000
139.000000	139.570000	-0.045821	0.071515	99.000000
140.000000	140.570000	-0.043948	0.071810	100.000000
141.000000	141.570000	-0.045222	0.067858	99.000000
142.000000	142.570000	-0.043643	0.071774	100.000000
143.000000	143.570000	-0.046620	0.069853	99.000000
144.000000	144.570000	-0.044649	0.072027	100.000000
145.000000	145.570000	-0.043481	0.074039	100.000000
146.000000	146.570000	-0.043894	0.072445	100.000000
147.000000	147.570000	-0.043948	0.073149	100.000000
148.000000	148.570000	-0.042349	0.073283	100.000000
149.000000	149.570000	-0.044128	0.073543	100.000000
150.000000	150.570000	-0.042456	0.072618	100.000000
151.000000	151.570000	-0.042600	0.071946	100.000000
152.000000	152.570000	-0.041989	0.074122	100.000000
153.000000	153.570000	-0.043407	0.069751	99.000000
154.000000	154.570000	-0.042644	0.070217	99.000000
155.000000	155.570000	-0.042349	0.073719	100.000000
156.000000	156.570000	-0.042259	0.071215	100.000000
157.000000	157.570000	-0.040731	0.073979	100.000000
158.000000	158.570000	-0.042735	0.069730	99.000000
159.000000	159.570000	-0.042281	0.069870	99.000000
160.000000	160.570000	-0.038970	0.072971	100.000000
161.000000	161.570000	-0.039257	0.071697	100.000000
162.000000	162.570000	-0.037244	0.071771	100.000000
163.000000	163.570000	-0.036957	0.072286	100.000000
164.000000	164.570000	-0.053501	0.067548	99.000000
165.000000	165.570000	-0.043225	0.068753	99.000000
166.000000	166.570000	-0.038898	0.072407	100.000000
167.000000	167.570000	-0.038934	0.071581	100.000000
168.000000	168.570000	-0.037694	0.072778	100.000000
169.000000	169.570000	-0.036615	0.070981	100.000000
170.000000	170.570000	-0.036292	0.071505	100.000000
171.000000	171.570000	-0.036561	0.072272	100.000000
172.000000	172.570000	-0.035501	0.070702	100.000000
173.000000	173.570000	-0.032373	0.072105	100.000000
174.000000	174.570000	-0.033128	0.073055	100.000000
175.000000	175.570000	-0.031043	0.070391	100.000000
176.000000	176.570000	-0.030971	0.070825	99.000000
177.000000	177.570000	-0.027089	0.073415	100.000000
178.000000	178.570000	-0.029336	0.072833	100.000000
179.000000	179.570000	-0.027104	0.070237	99.000000
180.000000	180.570000	-0.024321	0.072958	100.000000
181.000000	181.570000	-0.022632	0.073606	100.000000
182.000000	182.570000	-0.021356	0.070133	100.000000
183.000000	183.570000	-0.020709	0.072522	100.000000
184.000000	184.570000	-0.019630	0.070408	100.000000
185.000000	185.570000	-0.019918	0.072042	100.000000
186.000000	186.570000	-0.016179	0.071456	100.000000
187.000000	187.570000	-0.014166	0.073084	100.000000
188.000000	188.570000	-0.015303	0.070066	99.000000
189.000000	189.570000	-0.014722	0.069145	99.000000
190.000000	190.570000	-0.013669	0.069640	99.000000
191.000000	191.570000	-0.008666	0.072637	100.000000
192.000000	192.570000	-0.006294	0.071866	100.000000
193.000000	193.570000	-0.006456	0.071691	100.000000
194.000000	194.570000	-0.003490	0.071237	100.000000
195.000000	195.570000	-0.002322	0.071522	100.000000
196.000000	196.570000	-0.000201	0.070365	100.000000
197.000000	197.570000	0.002711	0.071819	100.000000
198.000000	198.570000	0.004328	0.070681	100.000000
199.000000	199.570000	0.002870	0.067710	99.000000
200.000000	200.570000	0.005928	0.072363	100.000000
201.000000	201.570000	0.006919	0.068137	99.000000
202.000000	202.570000	0.010817	0.072108	100.000000
203.000000	203.570000	0.011222	0.069685	99.000000
204.000000	204.570000	0.015148	0.071600	100.000000
205.000000	205.570000	0.019480	0.071160	100.000000
206.000000	206.570000	0.020864	0.071947	100.000000
207.000000	207.570000	0.021565	0.073230	100.000000
208.000000	208.570000	0.027244	0.072547	100.000000
209.000000	209.570000	0.026399	0.068237	99.000000
210.000000	210.570000	0.029940	0.070709	100.000000
211.000000	211.570000	0.033409	0.072290	100.000000
212.000000	212.570000	0.033897	0.068946	99.000000
213.000000	213.570000	0.037764	0.069299	99.000000
214.000000	214.570000	0.042162	0.071557	100.000000
215.000000	215.570000	0.046314	0.073800	100.000000
216.000000	216.570000	0.048435	0.072510	100.000000
217.000000	217.570000	0.048363	0.071497	100.000000
218.000000	218.570000	0.050382	0.069710	99.000000
219.000000	219.570000	0.054757	0.069798	99.000000
220.000000	220.570000	0.058482	0.073832	100.000000
221.000000	221.570000	0.061646	0.072192	100.000000
222.000000	222.570000	0.063928	0.072852	100.000000
223.000000	223.570000	0.068745	0.072595	100.000000
224.000000	224.570000	0.069681	0.067728	99.000000
225.000000	225.570000	0.072681	0.072467	100.000000
226.000000	226.570000	0.077804	0.073966	100.000000
227.000000	227.570000	0.083196	0.073108	100.000000
228.000000	228.570000	0.083879	0.072663	100.000000
229.000000	229.570000	0.087923	0.072423	100.000000
230.000000	230.570000	0.091266	0.072046	100.000000
231.000000	231.570000	0.093754	0.069579	99.000000
232.000000	232.570000	0.099210	0.072616	100.000000
233.000000	233.570000	0.102427	0.071832	100.000000
234.000000	234.570000	0.105591	0.068901	99.000000
235.000000	235.570000	0.111144	0.072231	100.000000
236.000000	236.570000	0.114778	0.069271	99.000000
237.000000	237.570000	0.119556	0.072709	100.000000
238.000000	238.570000	0.124696	0.071747	100.000000
239.000000	239.570000	0.130484	0.073193	100.000000
240.000000	240.570000	0.134761	0.073221	100.000000
241.000000	241.570000	0.139776	0.071034	100.000000
242.000000	242.570000	0.143820	0.072378	100.000000
243.000000	243.570000	0.149320	0.070936	100.000000
244.000000	244.570000	0.154137	0.070836	100.000000
245.000000	245.570000	0.161470	0.071337	100.000000
246.000000	246.570000	0.166664	0.073039	100.000000
247.000000	247.570000	0.171391	0.071834	100.000000
248.000000	248.570000	0.178041	0.072515	100.000000
249.000000	249.570000	0.184062	0.072193	100.000000
250.000000	250.570000	0.193427	0.071789	100.000000
251.000000	251.570000	0.199286	0.072371	100.000000
252.000000	252.570000	0.207033	0.072683	100.000000
253.000000	253.570000	0.212856	0.072376	100.000000
254.000000	254.570000	0.221609	0.074110	100.000000
255.000000	255.570000	0.228762	0.072782	100.000000
256.000000	256.570000	0.235628	0.072118	100.000000
257.000000	257.570000	0.242534	0.067825	99.000000
258.000000	258.570000	0.252361	0.073722	100.000000
259.000000	259.570000	0.261132	0.072870	100.000000
260.000000	260.570000	0.268968	0.068206	99.000000
261.000000	261.570000	0.281640	0.071873	100.000000
262.000000	262.570000	0.291669	0.072140	100.000000
263.000000	263.570000	0.302328	0.073291	100.000000
264.000000	264.570000	0.307747	0.070167	99.000000
265.000000	265.570000	0.322979	0.072835	100.000000
266.000000	266.570000	0.336189	0.073264	100.000000
267.000000	267.570000	0.347153	0.074538	100.000000
268.000000	268.570000	0.360328	0.070923	100.000000
269.000000	269.570000	0.372388	0.073092	100.000000
270.000000	270.570000	0.385940	0.073539	100.000000
271.000000	271.570000	0.398216	0.071955	100.000000
272.000000	272.570000	0.411516	0.070540	100.000000
273.000000	273.570000	0.427117	0.072156	100.000000
274.000000	274.570000	0.442394	0.072671	100.000000
275.000000	275.570000	0.458445	0.072505	100.000000
276.000000	276.570000	0.474405	0.072879	100.000000
277.000000	277.570000	0.491048	0.071440	100.000000
278.000000	278.570000	0.508357	0.074149	100.000000
279.000000	279.570000	0.524245	0.072058	100.000000
280.000000	280.570000	0.543854	0.072594	100.000000
281.000000	281.570000	0.564092	0.072409	100.000000
282.000000	282.570000	0.582911	0.071538	100.000000
283.000000	283.570000	0.603001	0.068944	99.000000
284.000000	284.570000	0.625238	0.073034	100.000000
285.000000	285.570000	0.646010	0.069630	99.000000
286.000000	286.570000	0.668922	0.070149	99.000000
287.000000	287.570000	0.696467	0.072333	100.000000
288.000000	288.570000	0.720917	0.069330	99.000000
289.000000	289.570000	0.744991	0.070260	99.000000
290.000000	290.570000	0.772841	0.069687	99.000000
291.000000	291.570000	0.802240	0.074174	100.000000
292.000000	292.570000	0.836605	0.071927	100.000000
293.000000	293.570000	0.864323	0.069460	99.000000
294.000000	294.570000	0.894406	0.072716	99.000000
295.000000	295.570000	0.931685	0.073829	100.000000
296.000000	296.570000	0.967775	0.071987	100.000000
297.000000	297.570000	1.000740	0.070426	99.000000
298.000000	298.570000	1.039957	0.071414	100.000000
299.000000	299.570000	1.077009	0.068148	99.000000
300.000000	300.570000	1.121124	0.074234	100.000000
301.000000	301.570000	1.165555	0.071587	100.000000
302.000000	302.570000	1.208619	0.072858	100.000000
303.000000	303.570000	1.258010	0.072243	100.000000
304.000000	304.570000	1.305604	0.072630	100.000000
305.000000	305.570000	1.357529	0.072302	100.000000
306.000000	306.570000	1.410389	0.072818	100.000000
307.000000	307.570000	1.466286	0.073549	100.000000
308.000000	308.570000	1.525616	0.073272	100.000000
309.000000	309.570000	1.584910	0.072654	100.000000
310.000000	310.570000	1.648393	0.070603	100.000000
311.000000	311.570000	1.715523	0.071591	100.000000
312.000000	312.570000	1.780895	0.070346	99.000000
313.000000	313.570000	1.855734	0.072626	100.000000
314.000000	314.570000	1.927771	0.072879	100.000000
315.000000	315.570000	2.008688	0.072229	100.000000
316.000000	316.570000	2.093253	0.074028	100.000000
317.000000	317.570000	2.179399	0.074002	100.000000
318.000000	318.570000	2.270596	0.071873	100.000000
319.000000	319.570000	2.365658	0.071826	100.000000
320.000000	320.570000	2.459528	0.069059	99.000000
321.000000	321.570000	2.567517	0.073923	100.000000
322.000000	322.570000	2.674926	0.072058	100.000000
323.000000	323.570000	2.788267	0.072224	100.000000
324.000000	324.570000	2.905453	0.072810	100.000000
325.000000	325.570000	3.028230	0.073502	100.000000
326.000000	326.570000	3.157081	0.073129	100.000000
327.000000	327.570000	3.287612	0.068225	99.000000
328.000000	328.570000	3.424777	0.072991	100.000000
329.000000	329.570000	3.570303	0.068904	99.000000
330.000000	330.570000	3.722309	0.072760	100.000000
331.000000	331.570000	3.876790	0.073435	100.000000
332.000000	332.570000	4.037509	0.073508	100.000000
333.000000	333.570000	4.202666	0.073113	100.000000
334.000000	334.570000	4.357669	0.074692	100.000000
335.000000	335.570000	4.545689	0.074167	100.000000
336.000000	336.570000	4.729917	0.073467	100.000000
337.000000	337.570000	4.922628	0.074421	100.000000
338.000000	338.570000	5.107502	0.073020	100.000000
339.000000	339.570000	5.317611	0.073031	100.000000
340.000000	340.570000	5.520028	0.073204	100.000000
341.000000	341.570000	5.726003	0.072479	100.000000
342.000000	342.570000	5.936580	0.073326	100.000000
343.000000	343.570000	6.152423	0.073561	100.000000
344.000000	344.570000	6.365893	0.072952	100.000000
345.000000	345.570000	6.585582	0.072868	100.000000
346.000000	346.570000	6.807985	0.074943	100.000000
347.000000	347.570000	7.036265	0.076388	100.000000
348.000000	348.570000	7.264150	0.079180	100.000000
349.000000	349.570000	7.502837	0.085633	100.000000
350.000000	350.570000	7.743124	0.096359	100.000000
351.000000	351.570000	8.003397	0.114164	100.000000
352.000000	352.570000	8.260165	0.138053	100.000000
353.000000	353.570000	8.530221	0.163689	99.000000
354.000000	354.570000	8.817069	0.202573	99.000000
355.000000	355.570000	9.122981	0.250002	99.000000
356.000000	356.570000	9.450696	0.307199	99.000000
357.000000	357.570000	9.794496	0.372444	99.000000
358.000000	358.570000	10.161190	0.445761	99.000000
359.000000	359.570000	10.561247	0.541676	100.000000
360.000000	360.570000	10.969963	0.627821	100.000000
361.000000	361.570000	11.373034	0.693026	99.000000
362.000000	362.570000	11.801019	0.781436	99.000000
363.000000	363.570000	12.231855	0.873146	99.000000
364.000000	364.570000	12.674219	0.968165	99.000000
365.000000	365.570000	13.108721	1.059774	99.000000
366.000000	366.570000	13.540991	1.154108	99.000000
367.000000	367.570000	13.951457	1.241712	99.000000
368.000000	368.570000	14.357075	1.322874	99.000000
369.000000	369.570000	14.735134	1.395824	99.000000
370.000000	370.570000	15.091461	1.451408	99.000000
371.000000	371.570000	15.406922	1.494345	99.000000
372.000000	372.570000	15.725621	1.574405	100.000000
373.000000	373.570000	15.956831	1.576687	100.000000
374.000000	374.570000	16.133186	1.555336	100.000000
375.000000	375.570000	16.252080	1.517903	100.000000
376.000000	376.570000	16.320361	1.458668	100.000000
377.000000	377.570000	16.331918	1.382421	100.000000
378.000000	378.570000	16.290237	1.299728	100.000000
379.000000	379.570000	16.199777	1.207651	100.000000
380.000000	380.570000	16.059009	1.110795	100.000000
381.000000	381.570000	15.875069	1.012498	100.000000
382.000000	382.570000	15.677776	0.879825	99.000000
383.000000	383.570000	15.445241	0.755378	98.000000
384.000000	384.570000	15.178172	0.638203	97.000000
385.000000	385.570000	14.858412	0.563903	97.000000
386.000000	386.570000	14.504516	0.524490	98.000000
387.000000	387.570000	14.152274	0.464214	98.000000
388.000000	388.570000	13.786955	0.407226	98.000000
389.000000	389.570000	13.416629	0.360471	98.000000
390.000000	390.570000	13.029039	0.334989	99.000000
391.000000	391.570000	12.650127	0.299223	99.000000
392.000000	392.570000	12.269617	0.270547	99.000000
393.000000	393.570000	11.898403	0.252462	99.000000
394.000000	394.570000	11.507925	0.243538	100.000000
395.000000	395.570000	11.141968	0.231943	100.000000
396.000000	396.570000	10.775724	0.219652	100.000000
397.000000	397.570000	10.426734	0.217760	100.000000
398.000000	398.570000	10.078535	0.215534	100.000000
399.000000	399.570000	9.749478	0.215449	100.000000
400.000000	400.570000	9.419450	0.214509	100.000000
401.000000	401.570000	9.104053	0.213133	100.000000
402.000000	402.570000	8.799116	0.215389	100.000000
403.000000	403.570000	8.505412	0.215999	100.000000
404.000000	404.570000	8.219437	0.215534	100.000000
405.000000	405.570000	7.946493	0.214386	100.000000
406.000000	406.570000	7.683973	0.213057	100.000000
407.000000	407.570000	7.431411	0.212162	100.000000
408.000000	408.570000	7.183701	0.209034	100.000000
409.000000	409.570000	6.948573	0.206675	100.000000
410.000000	410.570000	6.722144	0.205296	100.000000
411.000000	411.570000	6.504270	0.200179	100.000000
412.000000	412.570000	6.296174	0.199960	100.000000
413.000000	413.570000	6.096993	0.193923	100.000000
414.000000	414.570000	5.900363	0.193628	100.000000
415.000000	415.570000	5.716945	0.191154	100.000000
416.000000	416.570000	5.540643	0.185540	100.000000
417.000000	417.570000	5.369213	0.183077	100.000000
418.000000	418.570000	5.206032	0.178120	100.000000
419.000000	419.570000	5.051910	0.173173	100.000000
420.000000	420.570000	4.900826	0.171326	100.000000
421.000000	421.570000	4.760328	0.167089	100.000000
422.000000	422.570000	4.620728	0.166780	100.000000
423.000000	423.570000	4.486359	0.162934	100.000000
424.000000	424.570000	4.358154	0.158941	100.000000
425.000000	425.570000	4.235180	0.156988	100.000000
426.000000	426.570000	4.117167	0.153739	100.000000
427.000000	427.570000	4.005947	0.150686	100.000000
428.000000	428.570000	3.894710	0.147820	100.000000
429.000000	429.570000	3.789961	0.145865	100.000000
430.000000	430.570000	3.690838	0.143755	100.000000
431.000000	431.570000	3.594015	0.141520	100.000000
432.000000	432.570000	3.502314	0.137359	100.000000
433.000000	433.570000	3.412465	0.135035	100.000000
434.000000	434.570000	3.327092	0.132863	100.000000
435.000000	435.570000	3.243677	0.131647	100.000000
436.000000	436.570000	3.164935	0.127652	100.000000
437.000000	437.570000	3.091226	0.125153	100.000000
438.000000	438.570000	3.015468	0.122971	100.000000
439.000000	439.570000	2.943826	0.119598	100.000000
440.000000	440.570000	2.876534	0.115892	100.000000
441.000000	441.570000	2.813789	0.115518	100.000000
442.000000	442.570000	2.749067	0.114083	100.000000
443.000000	443.570000	2.689485	0.110802	100.000000
444.000000	444.570000	2.630945	0.108709	100.000000
445.000000	445.570000	2.574239	0.108702	100.000000
446.000000	446.570000	2.519402	0.104926	100.000000
447.000000	447.570000	2.465716	0.104597	100.000000
448.000000	448.570000	2.416900	0.101930	100.000000
449.000000	449.570000	2.366754	0.101678	100.000000
450.000000	450.570000	2.321928	0.099217	100.000000
451.000000	451.570000	2.274281	0.099004	100.000000
452.000000	452.570000	2.232582	0.098887	100.000000
453.000000	453.570000	2.187972	0.094777	100.000000
454.000000	454.570000	2.147982	0.094518	100.000000
455.000000	455.570000	2.109357	0.095322	100.000000
456.000000	456.570000	2.069528	0.093461	100.000000
457.000000	457.570000	2.032125	0.093015	100.000000
458.000000	458.570000	1.994704	0.090252	100.000000
459.000000	459.570000	1.960986	0.091341	100.000000
460.000000	460.570000	1.928149	0.088598	100.000000
461.000000	461.570000	1.895653	0.087622	100.000000
462.000000	462.570000	1.866033	0.088496	100.000000
463.000000	463.570000	1.833303	0.087324	100.000000
464.000000	464.570000	1.805229	0.086983	100.000000
465.000000	465.570000	1.773398	0.084899	100.000000
466.000000	466.570000	1.747246	0.084682	100.000000
467.000000	467.570000	1.720286	0.083791	100.000000
468.000000	468.570000	1.693434	0.083188	100.000000
469.000000	469.570000	1.668864	0.084499	100.000000
470.000000	470.570000	1.645786	0.082290	100.000000
471.000000	471.570000	1.621504	0.084143	100.000000
472.000000	472.570000	1.598966	0.081932	100.000000
473.000000	473.570000	1.576733	0.082739	100.000000
474.000000	474.570000	1.555991	0.080763	100.000000
475.000000	475.570000	1.534621	0.081632	100.000000
476.000000	476.570000	1.514850	0.080395	100.000000
477.000000	477.570000	1.495421	0.081302	100.000000
478.000000	478.570000	1.475237	0.081354	100.000000
479.000000	479.570000	1.459672	0.080812	100.000000
480.000000	480.570000	1.441447	0.081106	100.000000
481.000000	481.570000	1.423365	0.079666	100.000000
482.000000	482.570000	1.407333	0.079175	100.000000
483.000000	483.570000	1.390294	0.078921	100.000000
484.000000	484.570000	1.375179	0.079007	100.000000
485.000000	485.570000	1.359937	0.080188	100.000000
486.000000	486.570000	1.345181	0.078909	100.000000
487.000000	487.570000	1.331126	0.079057	100.000000
488.000000	488.570000	1.317178	0.079204	100.000000
489.000000	489.570000	1.303303	0.078467	100.000000
490.000000	490.570000	1.289733	0.078955	100.000000
491.000000	491.570000	1.276253	0.078188	100.000000
492.000000	492.570000	1.264337	0.076477	100.000000
493.000000	493.570000	1.252780	0.080099	100.000000
494.000000	494.570000	1.238922	0.080024	100.000000
495.000000	495.570000	1.225514	0.079427	100.000000
496.000000	496.570000	1.213436	0.079702	100.000000
497.000000	497.570000	1.202310	0.079422	100.000000
498.000000	498.570000	1.192048	0.080033	100.000000
499.000000	499.570000	1.181515	0.078581	100.000000
500.000000	500.570000	1.168089	0.080039	100.000000
501.000000	501.570000	1.156011	0.079449	100.000000
502.000000	502.570000	1.147132	0.079674	100.000000
503.000000	503.570000	1.134551	0.080231	100.000000
504.000000	504.570000	1.122401	0.077755	100.000000
505.000000	505.570000	1.112030	0.078381	100.000000
506.000000	506.570000	1.098154	0.078186	100.000000
507.000000	507.570000	1.086777	0.077807	100.000000
508.000000	508.570000	1.075148	0.079174	100.000000
509.000000	509.570000	1.063124	0.076728	100.000000
510.000000	510.570000	1.049698	0.077400	100.000000
511.000000	511.570000	1.038231	0.078262	100.000000
512.000000	512.570000	1.024068	0.076444	100.000000
513.000000	513.570000	1.009977	0.076622	100.000000
514.000000	514.570000	0.997360	0.076101	100.000000
515.000000	515.570000	0.987618	0.077695	100.000000
516.000000	516.570000	0.970058	0.075775	99.000000
517.000000	517.570000	0.959292	0.073969	100.000000
518.000000	518.570000	0.945506	0.077327	100.000000
519.000000	519.570000	0.931352	0.073349	99.000000
520.000000	520.570000	0.917971	0.075570	100.000000
521.000000	521.570000	0.902855	0.076552	100.000000
522.000000	522.570000	0.890939	0.075857	100.000000
523.000000	523.570000	0.874008	0.074584	100.000000
524.000000	524.570000	0.846760	0.074813	100.000000
525.000000	525.570000	0.841386	0.075554	100.000000
526.000000	526.570000	0.823747	0.070113	99.000000
527.000000	527.570000	0.812126	0.073782	100.000000
528.000000	528.570000	0.798915	0.076163	100.000000
529.000000	529.570000	0.781555	0.070256	99.000000
530.000000	530.570000	0.767533	0.074314	100.000000
531.000000	531.570000	0.753999	0.073547	100.000000
532.000000	532.570000	0.740915	0.073466	100.000000
533.000000	533.570000	0.726967	0.072877	100.000000
534.000000	534.570000	0.709371	0.071271	99.000000
535.000000	535.570000	0.698264	0.074297	100.000000
536.000000	536.570000	0.687120	0.073441	100.000000
537.000000	537.570000	0.671789	0.074452	100.000000
538.000000	538.570000	0.659909	0.073602	100.000000
539.000000	539.570000	0.644031	0.071357	99.000000
540.000000	540.570000	0.630596	0.069506	99.000000
541.000000	541.570000	0.620684	0.070846	99.000000
542.000000	542.570000	0.611578	0.072485	100.000000
543.000000	543.570000	0.601261	0.071656	100.000000
544.000000	544.570000	0.591430	0.071852	100.000000
545.000000	545.570000	0.577765	0.069242	99.000000
546.000000	546.570000	0.573421	0.072557	100.000000
547.000000	547.570000	0.561916	0.069795	99.000000
548.000000	548.570000	0.555429	0.073336	100.000000
549.000000	549.570000	0.546460	0.071110	100.000000
550.000000	550.570000	0.536009	0.071596	99.000000
551.000000	551.570000	0.530236	0.069040	99.000000
552.000000	552.570000	0.522611	0.070236	99.000000
553.000000	553.570000	0.517255	0.069713	99.000000
554.000000	554.570000	0.509739	0.068364	99.000000
555.000000	555.570000	0.503911	0.070399	99.000000
556.000000	556.570000	0.499354	0.069667	99.000000
557.000000	557.570000	0.496377	0.068551	99.000000
558.000000	558.570000	0.489786	0.070021	99.000000
559.000000	559.570000	0.485847	0.069838	99.000000
560.000000	560.570000	0.480691	0.069260	99.000000
561.000000	561.570000	0.475154	0.068631	99.000000
562.000000	562.570000	0.474536	0.069634	99.000000
563.000000	563.570000	0.469889	0.068881	99.000000
564.000000	564.570000	0.467165	0.068994	99.000000
565.000000	565.570000	0.463916	0.069477	99.000000
566.000000	566.570000	0.461283	0.069929	99.000000
567.000000	567.570000	0.459976	0.069816	99.000000
568.000000	568.570000	0.459486	0.068648	99.000000
569.000000	569.570000	0.458319	0.072370	100.000000
570.000000	570.570000	0.455020	0.069871	99.000000
571.000000	571.570000	0.451262	0.069851	99.000000
572.000000	572.570000	0.449156	0.068736	99.000000
573.000000	573.570000	0.448085	0.070010	99.000000
574.000000	574.570000	0.445597	0.069175	99.000000
575.000000	575.570000	0.444690	0.069725	99.000000
576.000000	576.570000	0.442311	0.071573	99.000000
577.000000	577.570000	0.443146	0.070597	99.000000
578.000000	578.570000	0.442184	0.070132	99.000000
579.000000	579.570000	0.439061	0.068628	99.000000
580.000000	580.570000	0.440423	0.071080	99.000000
581.000000	581.570000	0.438644	0.070330	99.000000
582.000000	582.570000	0.436974	0.070639	99.000000
583.000000	583.570000	0.436338	0.068524	99.000000
584.000000	584.570000	0.435648	0.069082	99.000000
585.000000	585.570000	0.431237	0.068878	99.000000
586.000000	586.570000	0.436212	0.071167	100.000000
587.000000	587.570000	0.432689	0.074695	100.000000
588.000000	588.570000	0.430184	0.068777	99.000000
589.000000	589.570000	0.430202	0.067812	99.000000
590.000000	590.570000	0.430946	0.069674	99.000000
591.000000	591.570000	0.427261	0.070559	99.000000
592.000000	592.570000	0.428223	0.069244	99.000000
593.000000	593.570000	0.429203	0.068950	99.000000
594.000000	594.570000	0.431691	0.068434	99.000000
595.000000	595.570000	0.431818	0.069335	99.000000
596.000000	596.570000	0.431037	0.068326	99.000000
597.000000	597.570000	0.435690	0.071169	100.000000
598.000000	598.570000	0.433488	0.069692	99.000000
599.000000	599.570000	0.437452	0.069713	100.000000
600.000000	600.570000	0.436665	0.067989	99.000000
601.000000	601.570000	0.440112	0.071583	100.000000
602.000000	602.570000	0.440723	0.071804	100.000000
603.000000	603.570000	0.441113	0.068661	99.000000
604.000000	604.570000	0.443800	0.067822	99.000000
605.000000	605.570000	0.444308	0.068392	99.000000
606.000000	606.570000	0.447122	0.068675	99.000000
607.000000	607.570000	0.445906	0.069848	99.000000
608.000000	608.570000	0.452603	0.070230	100.000000
609.000000	609.570000	0.454419	0.072772	100.000000
610.000000	610.570000	0.456145	0.069185	99.000000
611.000000	611.570000	0.458085	0.072580	100.000000
612.000000	612.570000	0.458088	0.067862	99.000000
613.000000	613.570000	0.459686	0.067001	99.000000
614.000000	614.570000	0.464052	0.071108	100.000000
615.000000	615.570000	0.463371	0.069594	99.000000
616.000000	616.570000	0.464714	0.071221	99.000000
617.000000	617.570000	0.469858	0.071999	100.000000
618.000000	618.570000	0.467147	0.068447	99.000000
619.000000	619.570000	0.470577	0.072568	100.000000
620.000000	620.570000	0.473830	0.072998	100.000000
621.000000	621.570000	0.473524	0.071056	100.000000
622.000000	622.570000	0.474585	0.072714	100.000000
623.000000	623.570000	0.476796	0.072561	100.000000
624.000000	624.570000	0.476454	0.071577	100.000000
625.000000	625.570000	0.476005	0.073159	100.000000
626.000000	626.570000	0.477191	0.071393	100.000000
627.000000	627.570000	0.474282	0.067668	99.000000
628.000000	628.570000	0.476778	0.071094	100.000000
629.000000	629.570000	0.475045	0.069414	99.000000
630.000000	630.570000	0.474754	0.067270	99.000000
631.000000	631.570000	0.476274	0.071547	100.000000
632.000000	632.570000	0.474809	0.069692	99.000000
633.000000	633.570000	0.472194	0.068290	99.000000
634.000000	634.570000	0.473255	0.073029	100.000000
635.000000	635.570000	0.472267	0.067539	99.000000
636.000000	636.570000	0.472805	0.071917	100.000000
637.000000	637.570000	0.469780	0.069199	99.000000
638.000000	638.570000	0.471386	0.070502	100.000000
639.000000	639.570000	0.470864	0.072579	100.000000
640.000000	640.570000	0.465586	0.069772	99.000000
641.000000	641.570000	0.465332	0.068729	99.000000
642.000000	642.570000	0.466694	0.071949	100.000000
643.000000	643.570000	0.464034	0.071383	100.000000
644.000000	644.570000	0.463008	0.068424	99.000000
645.000000	645.570000	0.462064	0.069778	99.000000
646.000000	646.570000	0.464358	0.070207	100.000000
647.000000	647.570000	0.463135	0.069656	99.000000
648.000000	648.570000	0.464460	0.070830	99.000000
649.000000	649.570000	0.464860	0.070154	99.000000
650.000000	650.570000	0.465314	0.068360	99.000000
651.000000	651.570000	0.467220	0.067655	99.000000
652.000000	652.570000	0.468763	0.070983	99.000000
653.000000	653.570000	0.470125	0.069378	99.000000
654.000000	654.570000	0.473229	0.069047	99.000000
655.000000	655.570000	0.478161	0.072165	100.000000
656.000000	656.570000	0.477550	0.068365	99.000000
657.000000	657.570000	0.481018	0.069809	99.000000
658.000000	658.570000	0.482924	0.069450	99.000000
659.000000	659.570000	0.484685	0.070058	99.000000
660.000000	660.570000	0.488766	0.071999	100.000000
661.000000	661.570000	0.490985	0.071598	99.000000
662.000000	662.570000	0.492325	0.071963	100.000000
663.000000	663.570000	0.494859	0.071901	100.000000
664.000000	664.570000	0.496656	0.072837	100.000000
665.000000	665.570000	0.498561	0.072545	100.000000
666.000000	666.570000	0.502497	0.070739	100.000000
667.000000	667.570000	0.504403	0.072235	100.000000
668.000000	668.570000	0.505912	0.071989	100.000000
669.000000	669.570000	0.506144	0.069171	99.000000
670.000000	670.570000	0.506888	0.068502	99.000000
671.000000	671.570000	0.512545	0.073273	100.000000
672.000000	672.570000	0.512462	0.069089	99.000000
673.000000	673.570000	0.516373	0.071662	100.000000
674.000000	674.570000	0.519518	0.072070	100.000000
675.000000	675.570000	0.520075	0.071564	100.000000
676.000000	676.570000	0.521383	0.066712	98.000000
677.000000	677.570000	0.525971	0.073676	100.000000
678.000000	678.570000	0.526366	0.070765	100.000000
679.000000	679.570000	0.531201	0.070785	100.000000
680.000000	680.570000	0.529146	0.067428	99.000000
681.000000	681.570000	0.532414	0.069749	99.000000
682.000000	682.570000	0.532342	0.066404	99.000000
683.000000	683.570000	0.539649	0.071727	100.000000
684.000000	684.570000	0.543854	0.071186	100.000000
685.000000	685.570000	0.543598	0.070243	99.000000
686.000000	686.570000	0.550217	0.072520	100.000000
687.000000	687.570000	0.554441	0.071894	100.000000
688.000000	688.570000	0.556288	0.069980	99.000000
689.000000	689.570000	0.562295	0.072078	100.000000
690.000000	690.570000	0.565765	0.068168	99.000000
691.000000	691.570000	0.569323	0.070862	99.000000
692.000000	692.570000	0.578435	0.071135	100.000000
693.000000	693.570000	0.581670	0.073083	100.000000
694.000000	694.570000	0.575865	0.071756	100.000000
695.000000	695.570000	0.588015	0.072244	100.000000
696.000000	696.570000	0.594668	0.070551	99.000000
697.000000	697.570000	0.603939	0.072471	100.000000
698.000000	698.570000	0.611183	0.073254	100.000000
699.000000	699.570000	0.619936	0.073328	100.000000
700.000000	700.570000	0.627790	0.073036	100.000000
701.000000	701.570000	0.629925	0.068208	99.000000
702.000000	702.570000	0.638930	0.068345	99.000000
703.000000	703.570000	0.647597	0.070159	100.000000
704.000000	704.570000	0.651384	0.069138	99.000000
705.000000	705.570000	0.658327	0.073848	100.000000
706.000000	706.570000	0.662191	0.072633	100.000000
707.000000	707.570000	0.668069	0.072459	100.000000
708.000000	708.570000	0.671897	0.070334	100.000000
709.000000	709.570000	0.674845	0.071024	100.000000
710.000000	710.570000	0.673460	0.070997	99.000000
711.000000	711.570000	0.678547	0.070248	100.000000
712.000000	712.570000	0.677792	0.071964	100.000000
713.000000	713.570000	0.675330	0.073277	100.000000
714.000000	714.570000	0.672867	0.073978	100.000000
715.000000	715.570000	0.668931	0.073799	100.000000
716.000000	716.570000	0.662748	0.072276	100.000000
717.000000	717.570000	0.657195	0.071633	100.000000
718.000000	718.570000	0.645224	0.073735	100.000000
719.000000	719.570000	0.635986	0.073341	100.000000

