LabVIEW Measurement	
Writer_Version	2
Reader_Version	2
Separator	Tab
Decimal_Separator	.
Multi_Headings	Yes
X_Columns	One
Time_Pref	Relative
Operator	zvar
Date	2019/12/12
Time	15:07:54.8399572372436523437
***End_of_Header***	
	
Channels	4				
Samples	720	720	720	720	
Date	2019/12/12	2019/12/12	2019/12/12	2019/12/12	
Time	15:07:54.8399572372436523437	15:07:54.8399572372436523437	15:07:54.8399572372436523437	15:07:54.8399572372436523437	
X_Dimension	Time	Time	Time	Time	
X0	0.0000000000000000E+0	0.0000000000000000E+0	0.0000000000000000E+0	0.0000000000000000E+0	
Delta_X	1.000000	1.000000	1.000000	1.000000	
***End_of_Header***					
X_Value	Untitled	Untitled 1	Untitled 2	Untitled 3	Comment
0.000000	0.570000	0.487310	0.043307	100.000000
1.000000	1.570000	0.467020	0.043592	99.000000
2.000000	2.570000	0.450123	0.045307	100.000000
3.000000	3.570000	0.430111	0.041883	99.000000
4.000000	4.570000	0.407236	0.043120	99.000000
5.000000	5.570000	0.382004	0.044039	100.000000
6.000000	6.570000	0.353192	0.044161	100.000000
7.000000	7.570000	0.322134	0.044639	100.000000
8.000000	8.570000	0.286331	0.045885	100.000000
9.000000	9.570000	0.248997	0.042740	99.000000
10.000000	10.570000	0.212029	0.044138	100.000000
11.000000	11.570000	0.175417	0.044233	100.000000
12.000000	12.570000	0.136972	0.043065	100.000000
13.000000	13.570000	0.101888	0.044688	100.000000
14.000000	14.570000	0.070201	0.043998	100.000000
15.000000	15.570000	0.041120	0.043589	100.000000
16.000000	16.570000	0.015346	0.044673	100.000000
17.000000	17.570000	-0.003508	0.044049	100.000000
18.000000	18.570000	-0.018983	0.044130	100.000000
19.000000	19.570000	-0.028401	0.042316	100.000000
20.000000	20.570000	-0.031493	0.041154	100.000000
21.000000	21.570000	-0.031942	0.042326	100.000000
22.000000	22.570000	-0.031852	0.044420	100.000000
23.000000	23.570000	-0.031726	0.044865	100.000000
24.000000	24.570000	-0.028617	0.043398	100.000000
25.000000	25.570000	-0.021248	0.042522	100.000000
26.000000	26.570000	-0.016862	0.044213	100.000000
27.000000	27.570000	-0.011654	0.041682	99.000000
28.000000	28.570000	-0.004856	0.045040	100.000000
29.000000	29.570000	0.000536	0.043742	100.000000
30.000000	30.570000	0.008858	0.044276	100.000000
31.000000	31.570000	0.016568	0.043218	100.000000
32.000000	32.570000	0.018006	0.044830	100.000000
33.000000	33.570000	0.024369	0.043455	100.000000
34.000000	34.570000	0.027676	0.042237	100.000000
35.000000	35.570000	0.031019	0.044260	100.000000
36.000000	36.570000	0.031378	0.045369	100.000000
37.000000	37.570000	0.031432	0.042996	100.000000
38.000000	38.570000	0.032636	0.042305	100.000000
39.000000	39.570000	0.028596	0.041300	99.000000
40.000000	40.570000	0.027852	0.039548	99.000000
41.000000	41.570000	0.029365	0.043995	100.000000
42.000000	42.570000	0.026543	0.044720	100.000000
43.000000	43.570000	0.024872	0.043006	100.000000
44.000000	44.570000	0.018635	0.043924	100.000000
45.000000	45.570000	0.014052	0.043854	100.000000
46.000000	46.570000	0.010529	0.044236	100.000000
47.000000	47.570000	0.005101	0.044193	100.000000
48.000000	48.570000	-0.000902	0.044159	100.000000
49.000000	49.570000	-0.004392	0.040264	99.000000
50.000000	50.570000	-0.004856	0.043610	100.000000
51.000000	51.570000	-0.007822	0.044476	100.000000
52.000000	52.570000	-0.010338	0.043506	100.000000
53.000000	53.570000	-0.014413	0.041943	99.000000
54.000000	54.570000	-0.011794	0.042759	100.000000
55.000000	55.570000	-0.011722	0.043682	100.000000
56.000000	56.570000	-0.011452	0.043161	100.000000
57.000000	57.570000	-0.010392	0.044410	100.000000
58.000000	58.570000	-0.007768	0.047667	100.000000
59.000000	59.570000	-0.007282	0.046761	100.000000
60.000000	60.570000	-0.005162	0.044229	100.000000
61.000000	61.570000	-0.007139	0.043535	100.000000
62.000000	62.570000	-0.005791	0.044065	100.000000
63.000000	63.570000	-0.006294	0.043832	100.000000
64.000000	64.570000	-0.006042	0.043200	100.000000
65.000000	65.570000	-0.002394	0.043021	100.000000
66.000000	66.570000	-0.000956	0.045525	100.000000
67.000000	67.570000	-0.001124	0.043454	99.000000
68.000000	68.570000	0.001309	0.043976	100.000000
69.000000	69.570000	0.002369	0.043242	100.000000
70.000000	70.570000	0.001686	0.042971	100.000000
71.000000	71.570000	0.001057	0.044134	100.000000
72.000000	72.570000	0.001650	0.043639	100.000000
73.000000	73.570000	0.001327	0.042034	100.000000
74.000000	74.570000	0.000212	0.044360	100.000000
75.000000	75.570000	0.000662	0.044484	100.000000
76.000000	76.570000	0.004274	0.043463	100.000000
77.000000	77.570000	-0.000201	0.044691	100.000000
78.000000	78.570000	0.000428	0.044155	100.000000
79.000000	79.570000	-0.001064	0.044241	100.000000
80.000000	80.570000	-0.002322	0.044605	100.000000
81.000000	81.570000	-0.005557	0.043933	100.000000
82.000000	82.570000	-0.005611	0.044519	100.000000
83.000000	83.570000	-0.007188	0.042514	99.000000
84.000000	84.570000	-0.008019	0.043857	100.000000
85.000000	85.570000	-0.009763	0.044756	100.000000
86.000000	86.570000	-0.009978	0.044953	100.000000
87.000000	87.570000	-0.009619	0.043784	100.000000
88.000000	88.570000	-0.014184	0.042085	100.000000
89.000000	89.570000	-0.014292	0.044009	100.000000
90.000000	90.570000	-0.018750	0.044843	100.000000
91.000000	91.570000	-0.019486	0.042142	100.000000
92.000000	92.570000	-0.020619	0.042127	100.000000
93.000000	93.570000	-0.021589	0.043900	100.000000
94.000000	94.570000	-0.022380	0.045102	100.000000
95.000000	95.570000	-0.023509	0.042742	99.000000
96.000000	96.570000	-0.025220	0.045477	100.000000
97.000000	97.570000	-0.024339	0.044165	100.000000
98.000000	98.570000	-0.028437	0.044081	100.000000
99.000000	99.570000	-0.027395	0.044871	100.000000
100.000000	100.570000	-0.028797	0.044495	100.000000
101.000000	101.570000	-0.030792	0.043040	100.000000
102.000000	102.570000	-0.028509	0.044201	100.000000
103.000000	103.570000	-0.031225	0.041654	99.000000
104.000000	104.570000	-0.031601	0.044428	100.000000
105.000000	105.570000	-0.032643	0.044510	100.000000
106.000000	106.570000	-0.031708	0.043808	100.000000
107.000000	107.570000	-0.034946	0.042469	99.000000
108.000000	108.570000	-0.031493	0.041130	100.000000
109.000000	109.570000	-0.031816	0.047126	100.000000
110.000000	110.570000	-0.030935	0.043150	100.000000
111.000000	111.570000	-0.030684	0.044039	100.000000
112.000000	112.570000	-0.031708	0.044704	100.000000
113.000000	113.570000	-0.031133	0.043639	100.000000
114.000000	114.570000	-0.030360	0.043738	100.000000
115.000000	115.570000	-0.033128	0.045104	100.000000
116.000000	116.570000	-0.032266	0.043360	100.000000
117.000000	117.570000	-0.029641	0.041575	100.000000
118.000000	118.570000	-0.028671	0.043556	100.000000
119.000000	119.570000	-0.028810	0.042458	99.000000
120.000000	120.570000	-0.030774	0.044625	100.000000
121.000000	121.570000	-0.032248	0.044781	100.000000
122.000000	122.570000	-0.033973	0.043213	100.000000
123.000000	123.570000	-0.033542	0.043730	100.000000
124.000000	124.570000	-0.034329	0.042966	99.000000
125.000000	125.570000	-0.033344	0.043512	100.000000
126.000000	126.570000	-0.032481	0.042394	100.000000
127.000000	127.570000	-0.032086	0.044781	100.000000
128.000000	128.570000	-0.030540	0.045435	100.000000
129.000000	129.570000	-0.029570	0.044738	100.000000
130.000000	130.570000	-0.029012	0.043531	100.000000
131.000000	131.570000	-0.030217	0.044206	100.000000
132.000000	132.570000	-0.029282	0.044780	100.000000
133.000000	133.570000	-0.028509	0.043826	100.000000
134.000000	134.570000	-0.027269	0.042972	100.000000
135.000000	135.570000	-0.025238	0.043766	100.000000
136.000000	136.570000	-0.021158	0.043962	100.000000
137.000000	137.570000	-0.023315	0.044886	100.000000
138.000000	138.570000	-0.021428	0.043199	100.000000
139.000000	139.570000	-0.020133	0.044145	100.000000
140.000000	140.570000	-0.019343	0.043645	100.000000
141.000000	141.570000	-0.017336	0.042379	99.000000
142.000000	142.570000	-0.017294	0.043900	100.000000
143.000000	143.570000	-0.020241	0.043156	100.000000
144.000000	144.570000	-0.017863	0.044741	99.000000
145.000000	145.570000	-0.017581	0.043563	100.000000
146.000000	146.570000	-0.017527	0.044744	100.000000
147.000000	147.570000	-0.018228	0.043630	100.000000
148.000000	148.570000	-0.018875	0.042145	100.000000
149.000000	149.570000	-0.018013	0.041900	100.000000
150.000000	150.570000	-0.016197	0.042962	100.000000
151.000000	151.570000	-0.013340	0.042190	100.000000
152.000000	152.570000	-0.011237	0.044509	100.000000
153.000000	153.570000	-0.009691	0.044987	100.000000
154.000000	154.570000	-0.008595	0.044473	100.000000
155.000000	155.570000	-0.009439	0.043947	99.000000
156.000000	156.570000	-0.007013	0.046241	100.000000
157.000000	157.570000	-0.007157	0.043991	100.000000
158.000000	158.570000	-0.007804	0.042088	100.000000
159.000000	159.570000	-0.007732	0.042647	99.000000
160.000000	160.570000	-0.005485	0.043615	100.000000
161.000000	161.570000	-0.005917	0.042671	100.000000
162.000000	162.570000	-0.006078	0.043670	100.000000
163.000000	163.570000	-0.006564	0.043049	100.000000
164.000000	164.570000	-0.016808	0.044608	100.000000
165.000000	165.570000	-0.009080	0.043411	100.000000
166.000000	166.570000	-0.009116	0.045308	100.000000
167.000000	167.570000	-0.011926	0.044466	99.000000
168.000000	168.570000	-0.008756	0.044071	100.000000
169.000000	169.570000	-0.007912	0.043144	100.000000
170.000000	170.570000	-0.006582	0.044544	100.000000
171.000000	171.570000	-0.004029	0.046503	100.000000
172.000000	172.570000	-0.000776	0.043838	100.000000
173.000000	173.570000	-0.000363	0.043971	100.000000
174.000000	174.570000	0.003286	0.046687	100.000000
175.000000	175.570000	0.003591	0.047295	100.000000
176.000000	176.570000	0.003358	0.045446	100.000000
177.000000	177.570000	0.007384	0.045158	100.000000
178.000000	178.570000	0.008822	0.043215	100.000000
179.000000	179.570000	0.012327	0.044532	100.000000
180.000000	180.570000	0.013081	0.042694	100.000000
181.000000	181.570000	0.014609	0.045765	100.000000
182.000000	182.570000	0.017647	0.045061	100.000000
183.000000	183.570000	0.018509	0.043926	100.000000
184.000000	184.570000	0.020145	0.043554	100.000000
185.000000	185.570000	0.023758	0.044891	100.000000
186.000000	186.570000	0.024441	0.046024	100.000000
187.000000	187.570000	0.026058	0.044733	100.000000
188.000000	188.570000	0.030408	0.044983	100.000000
189.000000	189.570000	0.032906	0.044202	100.000000
190.000000	190.570000	0.035674	0.045000	100.000000
191.000000	191.570000	0.039574	0.046861	100.000000
192.000000	192.570000	0.043187	0.044033	100.000000
193.000000	193.570000	0.045955	0.043591	100.000000
194.000000	194.570000	0.050250	0.044427	100.000000
195.000000	195.570000	0.054672	0.045470	100.000000
196.000000	196.570000	0.058985	0.045666	100.000000
197.000000	197.570000	0.064108	0.043254	100.000000
198.000000	198.570000	0.066768	0.043517	100.000000
199.000000	199.570000	0.070129	0.045006	100.000000
200.000000	200.570000	0.073903	0.043850	100.000000
201.000000	201.570000	0.078397	0.042767	100.000000
202.000000	202.570000	0.081722	0.045265	100.000000
203.000000	203.570000	0.087617	0.043936	100.000000
204.000000	204.570000	0.089558	0.043132	100.000000
205.000000	205.570000	0.093315	0.045208	100.000000
206.000000	206.570000	0.097772	0.044408	100.000000
207.000000	207.570000	0.100774	0.043442	100.000000
208.000000	208.570000	0.101978	0.043133	100.000000
209.000000	209.570000	0.103578	0.042765	100.000000
210.000000	210.570000	0.109940	0.044138	100.000000
211.000000	211.570000	0.111504	0.045324	100.000000
212.000000	212.570000	0.114398	0.043604	100.000000
213.000000	213.570000	0.118999	0.044507	100.000000
214.000000	214.570000	0.122468	0.044003	100.000000
215.000000	215.570000	0.123133	0.044861	100.000000
216.000000	216.570000	0.125128	0.043816	100.000000
217.000000	217.570000	0.128309	0.044045	100.000000
218.000000	218.570000	0.128327	0.042200	100.000000
219.000000	219.570000	0.131994	0.043564	100.000000
220.000000	220.570000	0.134025	0.044556	100.000000
221.000000	221.570000	0.138212	0.042707	100.000000
222.000000	222.570000	0.138230	0.042876	100.000000
223.000000	223.570000	0.140423	0.044203	100.000000
224.000000	224.570000	0.144791	0.043496	100.000000
225.000000	225.570000	0.146947	0.043788	100.000000
226.000000	226.570000	0.147576	0.045313	100.000000
227.000000	227.570000	0.148080	0.044722	100.000000
228.000000	228.570000	0.150779	0.039934	99.000000
229.000000	229.570000	0.155952	0.041758	100.000000
230.000000	230.570000	0.159744	0.043759	100.000000
231.000000	231.570000	0.164939	0.044011	100.000000
232.000000	232.570000	0.168605	0.041975	100.000000
233.000000	233.570000	0.172955	0.044490	100.000000
234.000000	234.570000	0.180971	0.042415	100.000000
235.000000	235.570000	0.186058	0.043666	100.000000
236.000000	236.570000	0.188556	0.043581	100.000000
237.000000	237.570000	0.197345	0.042812	100.000000
238.000000	238.570000	0.202306	0.044666	100.000000
239.000000	239.570000	0.208650	0.046113	100.000000
240.000000	240.570000	0.214204	0.044427	100.000000
241.000000	241.570000	0.218194	0.043046	100.000000
242.000000	242.570000	0.223101	0.042871	100.000000
243.000000	243.570000	0.228726	0.042786	100.000000
244.000000	244.570000	0.235197	0.044024	100.000000
245.000000	245.570000	0.245136	0.042247	100.000000
246.000000	246.570000	0.251822	0.043931	100.000000
247.000000	247.570000	0.259784	0.043930	100.000000
248.000000	248.570000	0.269526	0.044444	100.000000
249.000000	249.570000	0.275799	0.045017	100.000000
250.000000	250.570000	0.285145	0.046115	100.000000
251.000000	251.570000	0.294815	0.043768	100.000000
252.000000	252.570000	0.303586	0.045090	100.000000
253.000000	253.570000	0.313273	0.040787	100.000000
254.000000	254.570000	0.324651	0.042626	100.000000
255.000000	255.570000	0.338041	0.043380	100.000000
256.000000	256.570000	0.348465	0.043337	100.000000
257.000000	257.570000	0.358962	0.044364	100.000000
258.000000	258.570000	0.371669	0.044714	100.000000
259.000000	259.570000	0.381231	0.043807	100.000000
260.000000	260.570000	0.394621	0.044705	100.000000
261.000000	261.570000	0.406735	0.042657	100.000000
262.000000	262.570000	0.416405	0.042603	100.000000
263.000000	263.570000	0.430172	0.042553	100.000000
264.000000	264.570000	0.443617	0.043270	100.000000
265.000000	265.570000	0.458355	0.044888	100.000000
266.000000	266.570000	0.472356	0.045218	100.000000
267.000000	267.570000	0.485746	0.044666	100.000000
268.000000	268.570000	0.499640	0.042793	100.000000
269.000000	269.570000	0.515852	0.041569	100.000000
270.000000	270.570000	0.532208	0.042092	100.000000
271.000000	271.570000	0.549678	0.042070	100.000000
272.000000	272.570000	0.567148	0.041257	100.000000
273.000000	273.570000	0.583845	0.045141	100.000000
274.000000	274.570000	0.601908	0.042497	100.000000
275.000000	275.570000	0.621715	0.043928	100.000000
276.000000	276.570000	0.642169	0.043222	100.000000
277.000000	277.570000	0.660556	0.043029	100.000000
278.000000	278.570000	0.683256	0.042594	100.000000
279.000000	279.570000	0.706729	0.043159	100.000000
280.000000	280.570000	0.727525	0.041915	100.000000
281.000000	281.570000	0.751232	0.041802	100.000000
282.000000	282.570000	0.775801	0.043259	100.000000
283.000000	283.570000	0.800766	0.043397	100.000000
284.000000	284.570000	0.828895	0.042741	100.000000
285.000000	285.570000	0.855316	0.043172	100.000000
286.000000	286.570000	0.885134	0.044159	100.000000
287.000000	287.570000	0.912813	0.042602	100.000000
288.000000	288.570000	0.945632	0.044331	100.000000
289.000000	289.570000	0.979260	0.041354	100.000000
290.000000	290.570000	1.012817	0.043400	100.000000
291.000000	291.570000	1.049824	0.043237	100.000000
292.000000	292.570000	1.083830	0.042879	100.000000
293.000000	293.570000	1.121772	0.043026	100.000000
294.000000	294.570000	1.163650	0.044253	100.000000
295.000000	295.570000	1.205653	0.040537	100.000000
296.000000	296.570000	1.248053	0.042490	100.000000
297.000000	297.570000	1.295125	0.042903	100.000000
298.000000	298.570000	1.342952	0.043021	100.000000
299.000000	299.570000	1.389202	0.041412	99.000000
300.000000	300.570000	1.441034	0.042698	99.000000
301.000000	301.570000	1.493444	0.043923	100.000000
302.000000	302.570000	1.550042	0.044371	100.000000
303.000000	303.570000	1.606874	0.042750	100.000000
304.000000	304.570000	1.667732	0.043191	100.000000
305.000000	305.570000	1.729039	0.042941	100.000000
306.000000	306.570000	1.797482	0.041780	100.000000
307.000000	307.570000	1.866895	0.042894	100.000000
308.000000	308.570000	1.938142	0.045207	100.000000
309.000000	309.570000	2.013469	0.043822	100.000000
310.000000	310.570000	2.093648	0.044740	100.000000
311.000000	311.570000	2.177907	0.043897	100.000000
312.000000	312.570000	2.260567	0.041545	100.000000
313.000000	313.570000	2.352088	0.042780	100.000000
314.000000	314.570000	2.446646	0.043400	100.000000
315.000000	315.570000	2.546344	0.043728	100.000000
316.000000	316.570000	2.652154	0.042650	100.000000
317.000000	317.570000	2.758089	0.041407	100.000000
318.000000	318.570000	2.869992	0.041096	100.000000
319.000000	319.570000	2.991797	0.043049	100.000000
320.000000	320.570000	3.112795	0.041587	100.000000
321.000000	321.570000	3.240298	0.044536	100.000000
322.000000	322.570000	3.374739	0.042089	100.000000
323.000000	323.570000	3.511661	0.042892	100.000000
324.000000	324.570000	3.658090	0.045143	100.000000
325.000000	325.570000	3.808186	0.043453	100.000000
326.000000	326.570000	3.961679	0.043196	100.000000
327.000000	327.570000	4.121930	0.042952	100.000000
328.000000	328.570000	4.291815	0.046343	100.000000
329.000000	329.570000	4.466930	0.043897	100.000000
330.000000	330.570000	4.656603	0.044235	100.000000
331.000000	331.570000	4.846259	0.043304	100.000000
332.000000	332.570000	5.047848	0.045626	100.000000
333.000000	333.570000	5.256574	0.048613	100.000000
334.000000	334.570000	5.454838	0.045454	100.000000
335.000000	335.570000	5.678607	0.047639	100.000000
336.000000	336.570000	5.908254	0.045654	100.000000
337.000000	337.570000	6.139266	0.047079	100.000000
338.000000	338.570000	6.369434	0.047105	100.000000
339.000000	339.570000	6.625663	0.048632	100.000000
340.000000	340.570000	6.874684	0.046146	100.000000
341.000000	341.570000	7.134795	0.048549	100.000000
342.000000	342.570000	7.401880	0.047505	100.000000
343.000000	343.570000	7.677179	0.050164	100.000000
344.000000	344.570000	7.963586	0.050240	100.000000
345.000000	345.570000	8.266096	0.060387	100.000000
346.000000	346.570000	8.583417	0.072026	100.000000
347.000000	347.570000	8.924347	0.087703	99.000000
348.000000	348.570000	9.287109	0.112633	98.000000
349.000000	349.570000	9.699818	0.161109	99.000000
350.000000	350.570000	10.144088	0.216515	99.000000
351.000000	351.570000	10.650013	0.286050	99.000000
352.000000	352.570000	11.189851	0.367448	99.000000
353.000000	353.570000	11.798823	0.464790	99.000000
354.000000	354.570000	12.458048	0.571255	99.000000
355.000000	355.570000	13.193124	0.691801	99.000000
356.000000	356.570000	13.979524	0.818549	99.000000
357.000000	357.570000	14.825800	0.956856	99.000000
358.000000	358.570000	15.727811	1.104649	99.000000
359.000000	359.570000	16.682544	1.265921	99.000000
360.000000	360.570000	17.691779	1.433883	99.000000
361.000000	361.570000	18.729662	1.595910	99.000000
362.000000	362.570000	19.782323	1.744146	99.000000
363.000000	363.570000	20.873296	1.930860	100.000000
364.000000	364.570000	21.907451	2.026878	100.000000
365.000000	365.570000	22.892753	2.085885	100.000000
366.000000	366.570000	23.817540	2.096837	100.000000
367.000000	367.570000	24.633227	2.061401	100.000000
368.000000	368.570000	25.349306	1.984360	100.000000
369.000000	369.570000	25.928733	1.869880	100.000000
370.000000	370.570000	26.356734	1.730830	100.000000
371.000000	371.570000	26.665397	1.511942	99.000000
372.000000	372.570000	26.768462	1.337875	99.000000
373.000000	373.570000	26.716902	1.166829	99.000000
374.000000	374.570000	26.532720	0.996269	99.000000
375.000000	375.570000	26.232528	0.840293	99.000000
376.000000	376.570000	25.812567	0.700939	99.000000
377.000000	377.570000	25.316755	0.581798	99.000000
378.000000	378.570000	24.750193	0.482036	99.000000
379.000000	379.570000	24.130219	0.412718	99.000000
380.000000	380.570000	23.477040	0.361904	99.000000
381.000000	381.570000	22.783763	0.333582	100.000000
382.000000	382.570000	22.094033	0.307087	100.000000
383.000000	383.570000	21.400888	0.285631	100.000000
384.000000	384.570000	20.698876	0.263097	99.000000
385.000000	385.570000	20.006519	0.248779	99.000000
386.000000	386.570000	19.329393	0.239561	99.000000
387.000000	387.570000	18.667365	0.240211	100.000000
388.000000	388.570000	18.018130	0.232508	100.000000
389.000000	389.570000	17.382194	0.222193	100.000000
390.000000	390.570000	16.769930	0.213720	100.000000
391.000000	391.570000	16.171199	0.202912	100.000000
392.000000	392.570000	15.585803	0.184664	99.000000
393.000000	393.570000	15.035544	0.177783	99.000000
394.000000	394.570000	14.483924	0.168928	99.000000
395.000000	395.570000	13.963003	0.162246	99.000000
396.000000	396.570000	13.455754	0.157622	99.000000
397.000000	397.570000	12.972487	0.150452	99.000000
398.000000	398.570000	12.501837	0.143315	99.000000
399.000000	399.570000	12.061343	0.141725	99.000000
400.000000	400.570000	11.626133	0.136821	99.000000
401.000000	401.570000	11.216630	0.138272	100.000000
402.000000	402.570000	10.817474	0.130398	99.000000
403.000000	403.570000	10.435512	0.126886	99.000000
404.000000	404.570000	10.073269	0.126337	100.000000
405.000000	405.570000	9.722500	0.125527	100.000000
406.000000	406.570000	9.388446	0.122396	100.000000
407.000000	407.570000	9.069292	0.118694	100.000000
408.000000	408.570000	8.758029	0.115576	100.000000
409.000000	409.570000	8.464523	0.111613	100.000000
410.000000	410.570000	8.183652	0.111080	100.000000
411.000000	411.570000	7.912505	0.108469	100.000000
412.000000	412.570000	7.658631	0.105021	100.000000
413.000000	413.570000	7.415792	0.103766	100.000000
414.000000	414.570000	7.176696	0.095970	99.000000
415.000000	415.570000	6.956567	0.094443	99.000000
416.000000	416.570000	6.745653	0.097970	100.000000
417.000000	417.570000	6.535760	0.097304	100.000000
418.000000	418.570000	6.339777	0.095649	100.000000
419.000000	419.570000	6.148918	0.093277	100.000000
420.000000	420.570000	5.965391	0.093371	100.000000
421.000000	421.570000	5.787478	0.086147	99.000000
422.000000	422.570000	5.622530	0.089747	100.000000
423.000000	423.570000	5.462136	0.086314	100.000000
424.000000	424.570000	5.304374	0.081985	99.000000
425.000000	425.570000	5.156302	0.081596	99.000000
426.000000	426.570000	5.013731	0.076905	99.000000
427.000000	427.570000	4.880474	0.079740	99.000000
428.000000	428.570000	4.749068	0.079040	99.000000
429.000000	429.570000	4.624707	0.075657	99.000000
430.000000	430.570000	4.504512	0.077410	100.000000
431.000000	431.570000	4.385697	0.075258	99.000000
432.000000	432.570000	4.275063	0.074728	100.000000
433.000000	433.570000	4.172723	0.075808	100.000000
434.000000	434.570000	4.069322	0.073189	100.000000
435.000000	435.570000	3.969749	0.073315	100.000000
436.000000	436.570000	3.872855	0.067986	99.000000
437.000000	437.570000	3.786959	0.072284	100.000000
438.000000	438.570000	3.697326	0.072433	100.000000
439.000000	439.570000	3.611233	0.070448	100.000000
440.000000	440.570000	3.527405	0.070298	100.000000
441.000000	441.570000	3.451198	0.069985	100.000000
442.000000	442.570000	3.372007	0.067764	100.000000
443.000000	443.570000	3.297705	0.067525	100.000000
444.000000	444.570000	3.224176	0.065871	100.000000
445.000000	445.570000	3.158094	0.062760	99.000000
446.000000	446.570000	3.091157	0.063853	99.000000
447.000000	447.570000	3.027870	0.065422	100.000000
448.000000	448.570000	2.963220	0.062658	100.000000
449.000000	449.570000	2.901256	0.061062	99.000000
450.000000	450.570000	2.845206	0.062451	100.000000
451.000000	451.570000	2.788338	0.061990	100.000000
452.000000	452.570000	2.732324	0.057758	99.000000
453.000000	453.570000	2.682331	0.061156	100.000000
454.000000	454.570000	2.631305	0.060437	100.000000
455.000000	455.570000	2.581141	0.061173	100.000000
456.000000	456.570000	2.533008	0.060536	100.000000
457.000000	457.570000	2.486439	0.060121	100.000000
458.000000	458.570000	2.441064	0.055419	99.000000
459.000000	459.570000	2.397435	0.059754	100.000000
460.000000	460.570000	2.355953	0.055530	99.000000
461.000000	461.570000	2.314669	0.055814	99.000000
462.000000	462.570000	2.276380	0.055552	99.000000
463.000000	463.570000	2.236432	0.050661	98.000000
464.000000	464.570000	2.200747	0.053830	99.000000
465.000000	465.570000	2.166422	0.056292	100.000000
466.000000	466.570000	2.131212	0.055488	100.000000
467.000000	467.570000	2.097422	0.055304	100.000000
468.000000	468.570000	2.063259	0.051757	99.000000
469.000000	469.570000	2.032232	0.054053	99.000000
470.000000	470.570000	2.002240	0.052705	99.000000
471.000000	471.570000	1.973683	0.053371	99.000000
472.000000	472.570000	1.947648	0.052177	99.000000
473.000000	473.570000	1.920330	0.052859	100.000000
474.000000	474.570000	1.891205	0.052701	99.000000
475.000000	475.570000	1.867003	0.054173	100.000000
476.000000	476.570000	1.843746	0.054249	100.000000
477.000000	477.570000	1.814591	0.050789	99.000000
478.000000	478.570000	1.798021	0.051772	100.000000
479.000000	479.570000	1.773706	0.051704	99.000000
480.000000	480.570000	1.749259	0.053482	100.000000
481.000000	481.570000	1.728913	0.051209	100.000000
482.000000	482.570000	1.706913	0.049554	99.000000
483.000000	483.570000	1.685491	0.050584	99.000000
484.000000	484.570000	1.667301	0.051162	100.000000
485.000000	485.570000	1.648105	0.051106	100.000000
486.000000	486.570000	1.627231	0.049269	99.000000
487.000000	487.570000	1.612572	0.048949	100.000000
488.000000	488.570000	1.593160	0.051546	100.000000
489.000000	489.570000	1.576086	0.050848	100.000000
490.000000	490.570000	1.561617	0.050540	100.000000
491.000000	491.570000	1.543733	0.050505	100.000000
492.000000	492.570000	1.525364	0.048166	99.000000
493.000000	493.570000	1.509369	0.048714	99.000000
494.000000	494.570000	1.497078	0.046959	99.000000
495.000000	495.570000	1.479450	0.046537	99.000000
496.000000	496.570000	1.469575	0.050420	100.000000
497.000000	497.570000	1.451001	0.047690	99.000000
498.000000	498.570000	1.436576	0.049816	100.000000
499.000000	499.570000	1.422044	0.048839	99.000000
500.000000	500.570000	1.406506	0.048360	100.000000
501.000000	501.570000	1.389873	0.045741	99.000000
502.000000	502.570000	1.374064	0.048386	100.000000
503.000000	503.570000	1.357583	0.047567	100.000000
504.000000	504.570000	1.339807	0.048918	100.000000
505.000000	505.570000	1.321384	0.047742	100.000000
506.000000	506.570000	1.304759	0.048302	100.000000
507.000000	507.570000	1.283049	0.046403	99.000000
508.000000	508.570000	1.265757	0.046367	100.000000
509.000000	509.570000	1.245321	0.044855	100.000000
510.000000	510.570000	1.227401	0.044611	100.000000
511.000000	511.570000	1.207037	0.046424	100.000000
512.000000	512.570000	1.188435	0.046005	100.000000
513.000000	513.570000	1.169491	0.047830	100.000000
514.000000	514.570000	1.147269	0.045483	99.000000
515.000000	515.570000	1.127415	0.045039	100.000000
516.000000	516.570000	1.105847	0.046672	100.000000
517.000000	517.570000	1.080361	0.045786	100.000000
518.000000	518.570000	1.053462	0.042811	99.000000
519.000000	519.570000	1.032408	0.044853	100.000000
520.000000	520.570000	1.006598	0.044318	100.000000
521.000000	521.570000	0.981130	0.043157	100.000000
522.000000	522.570000	0.958645	0.045928	100.000000
523.000000	523.570000	0.932260	0.046065	100.000000
524.000000	524.570000	0.895037	0.045744	100.000000
525.000000	525.570000	0.874727	0.046669	100.000000
526.000000	526.570000	0.849330	0.043381	100.000000
527.000000	527.570000	0.823790	0.045198	100.000000
528.000000	528.570000	0.799670	0.045793	100.000000
529.000000	529.570000	0.772189	0.044094	100.000000
530.000000	530.570000	0.747241	0.043969	100.000000
531.000000	531.570000	0.724523	0.044453	100.000000
532.000000	532.570000	0.698839	0.044271	100.000000
533.000000	533.570000	0.673083	0.043937	100.000000
534.000000	534.570000	0.652198	0.044503	100.000000
535.000000	535.570000	0.628204	0.044083	100.000000
536.000000	536.570000	0.605521	0.043379	100.000000
537.000000	537.570000	0.581634	0.041482	100.000000
538.000000	538.570000	0.564488	0.042306	100.000000
539.000000	539.570000	0.543567	0.044091	100.000000
540.000000	540.570000	0.524102	0.044038	100.000000
541.000000	541.570000	0.507530	0.043717	100.000000
542.000000	542.570000	0.488370	0.043851	100.000000
543.000000	543.570000	0.471961	0.043454	100.000000
544.000000	544.570000	0.454221	0.043742	100.000000
545.000000	545.570000	0.439986	0.043500	100.000000
546.000000	546.570000	0.426021	0.042249	100.000000
547.000000	547.570000	0.412325	0.044628	100.000000
548.000000	548.570000	0.397227	0.042558	100.000000
549.000000	549.570000	0.384915	0.042479	100.000000
550.000000	550.570000	0.374293	0.042618	100.000000
551.000000	551.570000	0.364012	0.043010	100.000000
552.000000	552.570000	0.351898	0.043094	100.000000
553.000000	553.570000	0.341312	0.044212	100.000000
554.000000	554.570000	0.331804	0.041862	100.000000
555.000000	555.570000	0.323968	0.042763	100.000000
556.000000	556.570000	0.316383	0.041478	100.000000
557.000000	557.570000	0.304551	0.043037	99.000000
558.000000	558.570000	0.299146	0.044190	100.000000
559.000000	559.570000	0.293071	0.044076	100.000000
560.000000	560.570000	0.283330	0.043403	100.000000
561.000000	561.570000	0.279124	0.042533	100.000000
562.000000	562.570000	0.272815	0.041059	100.000000
563.000000	563.570000	0.267154	0.042383	100.000000
564.000000	564.570000	0.261330	0.041633	100.000000
565.000000	565.570000	0.255866	0.043976	100.000000
566.000000	566.570000	0.252829	0.044244	100.000000
567.000000	567.570000	0.246074	0.040948	99.000000
568.000000	568.570000	0.241380	0.042125	100.000000
569.000000	569.570000	0.235671	0.039556	99.000000
570.000000	570.570000	0.233885	0.041997	100.000000
571.000000	571.570000	0.230715	0.040644	99.000000
572.000000	572.570000	0.225777	0.041720	99.000000
573.000000	573.570000	0.225941	0.043168	100.000000
574.000000	574.570000	0.222867	0.044760	100.000000
575.000000	575.570000	0.219812	0.040459	100.000000
576.000000	576.570000	0.220387	0.043711	100.000000
577.000000	577.570000	0.215911	0.041447	100.000000
578.000000	578.570000	0.215356	0.039033	99.000000
579.000000	579.570000	0.214521	0.040553	99.000000
580.000000	580.570000	0.214222	0.042410	100.000000
581.000000	581.570000	0.211598	0.042297	100.000000
582.000000	582.570000	0.213557	0.043608	100.000000
583.000000	583.570000	0.211400	0.043354	100.000000
584.000000	584.570000	0.210164	0.040982	99.000000
585.000000	585.570000	0.210843	0.044183	100.000000
586.000000	586.570000	0.208802	0.040964	99.000000
587.000000	587.570000	0.209002	0.042682	99.000000
588.000000	588.570000	0.210394	0.041705	100.000000
589.000000	589.570000	0.209585	0.041037	100.000000
590.000000	590.570000	0.211328	0.043785	100.000000
591.000000	591.570000	0.213126	0.041316	100.000000
592.000000	592.570000	0.215624	0.043205	100.000000
593.000000	593.570000	0.215426	0.041292	100.000000
594.000000	594.570000	0.218751	0.043251	100.000000
595.000000	595.570000	0.220566	0.041973	100.000000
596.000000	596.570000	0.221910	0.040006	99.000000
597.000000	597.570000	0.223981	0.042776	100.000000
598.000000	598.570000	0.226552	0.044410	100.000000
599.000000	599.570000	0.228664	0.043455	99.000000
600.000000	600.570000	0.229158	0.044368	100.000000
601.000000	601.570000	0.230686	0.042539	100.000000
602.000000	602.570000	0.228936	0.041453	99.000000
603.000000	603.570000	0.232052	0.041486	100.000000
604.000000	604.570000	0.232447	0.042700	100.000000
605.000000	605.570000	0.235844	0.042371	100.000000
606.000000	606.570000	0.241919	0.043112	100.000000
607.000000	607.570000	0.242548	0.043689	100.000000
608.000000	608.570000	0.247005	0.043139	100.000000
609.000000	609.570000	0.251589	0.043541	100.000000
610.000000	610.570000	0.258365	0.044207	100.000000
611.000000	611.570000	0.261258	0.045573	100.000000
612.000000	612.570000	0.268070	0.043256	100.000000
613.000000	613.570000	0.273013	0.042871	100.000000
614.000000	614.570000	0.282269	0.041525	100.000000
615.000000	615.570000	0.287715	0.043105	100.000000
616.000000	616.570000	0.294869	0.043090	100.000000
617.000000	617.570000	0.303568	0.043892	100.000000
618.000000	618.570000	0.310829	0.043806	100.000000
619.000000	619.570000	0.317731	0.043233	100.000000
620.000000	620.570000	0.323213	0.043310	100.000000
621.000000	621.570000	0.330582	0.040909	100.000000
622.000000	622.570000	0.338202	0.042480	100.000000
623.000000	623.570000	0.347567	0.042515	100.000000
624.000000	624.570000	0.356859	0.041301	100.000000
625.000000	625.570000	0.363078	0.042825	100.000000
626.000000	626.570000	0.373125	0.044082	100.000000
627.000000	627.570000	0.379757	0.043048	100.000000
628.000000	628.570000	0.386677	0.042656	100.000000
629.000000	629.570000	0.392644	0.043389	100.000000
630.000000	630.570000	0.401109	0.042309	100.000000
631.000000	631.570000	0.410563	0.044035	100.000000
632.000000	632.570000	0.414841	0.043028	100.000000
633.000000	633.570000	0.426380	0.042403	100.000000
634.000000	634.570000	0.430748	0.043736	100.000000
635.000000	635.570000	0.436805	0.045274	100.000000
636.000000	636.570000	0.443275	0.041158	100.000000
637.000000	637.570000	0.449656	0.044434	100.000000
638.000000	638.570000	0.455569	0.042039	100.000000
639.000000	639.570000	0.461770	0.043147	100.000000
640.000000	640.570000	0.466874	0.043495	100.000000
641.000000	641.570000	0.478431	0.042991	100.000000
642.000000	642.570000	0.480390	0.042963	100.000000
643.000000	643.570000	0.486573	0.043840	100.000000
644.000000	644.570000	0.491911	0.042041	99.000000
645.000000	645.570000	0.499460	0.043766	100.000000
646.000000	646.570000	0.505805	0.042673	100.000000
647.000000	647.570000	0.512005	0.043076	100.000000
648.000000	648.570000	0.518799	0.041885	100.000000
649.000000	649.570000	0.524910	0.042333	100.000000
650.000000	650.570000	0.530853	0.042780	99.000000
651.000000	651.570000	0.537977	0.043971	100.000000
652.000000	652.570000	0.542794	0.042557	100.000000
653.000000	653.570000	0.547844	0.042946	100.000000
654.000000	654.570000	0.549947	0.043517	100.000000
655.000000	655.570000	0.554189	0.044109	100.000000
656.000000	656.570000	0.561954	0.044958	100.000000
657.000000	657.570000	0.561558	0.042584	100.000000
658.000000	658.570000	0.564434	0.044532	100.000000
659.000000	659.570000	0.566267	0.042525	100.000000
660.000000	660.570000	0.568280	0.043613	100.000000
661.000000	661.570000	0.567921	0.042085	100.000000
662.000000	662.570000	0.569233	0.044510	100.000000
663.000000	663.570000	0.567112	0.041628	100.000000
664.000000	664.570000	0.565926	0.043319	100.000000
665.000000	665.570000	0.566716	0.042521	100.000000
666.000000	666.570000	0.562279	0.042852	99.000000
667.000000	667.570000	0.564578	0.043435	100.000000
668.000000	668.570000	0.564919	0.044548	100.000000
669.000000	669.570000	0.562133	0.043422	100.000000
670.000000	670.570000	0.561644	0.042602	99.000000
671.000000	671.570000	0.561648	0.043826	100.000000
672.000000	672.570000	0.559347	0.045009	100.000000
673.000000	673.570000	0.560480	0.044465	100.000000
674.000000	674.570000	0.562097	0.043591	100.000000
675.000000	675.570000	0.561558	0.043604	100.000000
676.000000	676.570000	0.562421	0.043397	100.000000
677.000000	677.570000	0.563176	0.042442	100.000000
678.000000	678.570000	0.562878	0.041178	99.000000
679.000000	679.570000	0.565638	0.044336	100.000000
680.000000	680.570000	0.562690	0.043443	100.000000
681.000000	681.570000	0.562241	0.045034	100.000000
682.000000	682.570000	0.560857	0.044417	100.000000
683.000000	683.570000	0.557245	0.043955	100.000000
684.000000	684.570000	0.558844	0.043410	100.000000
685.000000	685.570000	0.556364	0.043283	100.000000
686.000000	686.570000	0.556939	0.042598	100.000000
687.000000	687.570000	0.553583	0.043708	99.000000
688.000000	688.570000	0.556220	0.043957	100.000000
689.000000	689.570000	0.554836	0.043208	100.000000
690.000000	690.570000	0.556903	0.042337	100.000000
691.000000	691.570000	0.561522	0.042452	100.000000
692.000000	692.570000	0.563499	0.042068	100.000000
693.000000	693.570000	0.568442	0.044375	100.000000
694.000000	694.570000	0.557352	0.045500	100.000000
695.000000	695.570000	0.563133	0.044105	99.000000
696.000000	696.570000	0.569844	0.044605	100.000000
697.000000	697.570000	0.572612	0.044163	100.000000
698.000000	698.570000	0.572264	0.039398	99.000000
699.000000	699.570000	0.576081	0.044546	100.000000
700.000000	700.570000	0.577285	0.042138	100.000000
701.000000	701.570000	0.577747	0.041718	99.000000
702.000000	702.570000	0.579334	0.043489	100.000000
703.000000	703.570000	0.578489	0.042147	100.000000
704.000000	704.570000	0.579460	0.044880	100.000000
705.000000	705.570000	0.579262	0.043958	100.000000
706.000000	706.570000	0.577357	0.044702	100.000000
707.000000	707.570000	0.575423	0.042969	99.000000
708.000000	708.570000	0.574409	0.043567	100.000000
709.000000	709.570000	0.574122	0.041182	100.000000
710.000000	710.570000	0.571066	0.041725	99.000000
711.000000	711.570000	0.571174	0.042837	100.000000
712.000000	712.570000	0.567076	0.044976	100.000000
713.000000	713.570000	0.562115	0.044570	100.000000
714.000000	714.570000	0.555555	0.046365	100.000000
715.000000	715.570000	0.545686	0.040254	99.000000
716.000000	716.570000	0.538768	0.043655	100.000000
717.000000	717.570000	0.526546	0.042155	100.000000
718.000000	718.570000	0.516492	0.041725	99.000000
719.000000	719.570000	0.505697	0.046523	100.000000

