LabVIEW Measurement	
Writer_Version	2
Reader_Version	2
Separator	Tab
Decimal_Separator	.
Multi_Headings	Yes
X_Columns	One
Time_Pref	Relative
Operator	zvar
Date	2019/12/12
Time	15:03:33.5128269195556640625
***End_of_Header***	
	
Channels	4				
Samples	720	720	720	720	
Date	2019/12/12	2019/12/12	2019/12/12	2019/12/12	
Time	15:03:33.5128269195556640625	15:03:33.5128269195556640625	15:03:33.5128269195556640625	15:03:33.5128269195556640625	
X_Dimension	Time	Time	Time	Time	
X0	0.0000000000000000E+0	0.0000000000000000E+0	0.0000000000000000E+0	0.0000000000000000E+0	
Delta_X	1.000000	1.000000	1.000000	1.000000	
***End_of_Header***					
X_Value	Untitled	Untitled 1	Untitled 2	Untitled 3	Comment
0.000000	0.570000	0.508716	0.054406	100.000000
1.000000	1.570000	0.499352	0.055880	100.000000
2.000000	2.570000	0.485513	0.055765	100.000000
3.000000	3.570000	0.466299	0.058090	100.000000
4.000000	4.570000	0.447085	0.055276	100.000000
5.000000	5.570000	0.422642	0.055106	100.000000
6.000000	6.570000	0.395861	0.056727	100.000000
7.000000	7.570000	0.366097	0.053994	100.000000
8.000000	8.570000	0.332074	0.055524	100.000000
9.000000	9.570000	0.297637	0.055785	100.000000
10.000000	10.570000	0.259102	0.053176	100.000000
11.000000	11.570000	0.221501	0.055036	100.000000
12.000000	12.570000	0.183541	0.056032	100.000000
13.000000	13.570000	0.144862	0.054079	100.000000
14.000000	14.570000	0.106921	0.054806	100.000000
15.000000	15.570000	0.072771	0.055313	100.000000
16.000000	16.570000	0.040832	0.055478	100.000000
17.000000	17.570000	0.012632	0.055711	100.000000
18.000000	18.570000	-0.012153	0.056384	100.000000
19.000000	19.570000	-0.028707	0.057439	100.000000
20.000000	20.570000	-0.043157	0.057693	100.000000
21.000000	21.570000	-0.054517	0.057313	100.000000
22.000000	22.570000	-0.060160	0.057194	100.000000
23.000000	23.570000	-0.062227	0.057923	100.000000
24.000000	24.570000	-0.061239	0.057237	100.000000
25.000000	25.570000	-0.059729	0.057721	100.000000
26.000000	26.570000	-0.061580	0.057465	100.000000
27.000000	27.570000	-0.062119	0.057323	100.000000
28.000000	28.570000	-0.054624	0.058978	100.000000
29.000000	29.570000	-0.050293	0.058418	100.000000
30.000000	30.570000	-0.043966	0.057690	100.000000
31.000000	31.570000	-0.041288	0.058622	100.000000
32.000000	32.570000	-0.032823	0.057378	100.000000
33.000000	33.570000	-0.030720	0.060193	100.000000
34.000000	34.570000	-0.027574	0.059179	100.000000
35.000000	35.570000	-0.021140	0.060138	100.000000
36.000000	36.570000	-0.017815	0.061230	100.000000
37.000000	37.570000	-0.012854	0.059888	100.000000
38.000000	38.570000	-0.013843	0.058560	100.000000
39.000000	39.570000	-0.007642	0.057542	100.000000
40.000000	40.570000	-0.005809	0.060208	100.000000
41.000000	41.570000	-0.003131	0.058182	100.000000
42.000000	42.570000	-0.001010	0.058924	100.000000
43.000000	43.570000	-0.000453	0.059203	100.000000
44.000000	44.570000	0.000356	0.060767	100.000000
45.000000	45.570000	-9.311780E-5	0.060499	100.000000
46.000000	46.570000	0.001686	0.060668	100.000000
47.000000	47.570000	0.000320	0.062094	100.000000
48.000000	48.570000	0.002675	0.060198	100.000000
49.000000	49.570000	-0.000165	0.060444	100.000000
50.000000	50.570000	-0.001351	0.060017	100.000000
51.000000	51.570000	-0.005413	0.061759	100.000000
52.000000	52.570000	-0.007139	0.059349	100.000000
53.000000	53.570000	-0.010158	0.058792	100.000000
54.000000	54.570000	-0.010859	0.059034	100.000000
55.000000	55.570000	-0.014508	0.059397	100.000000
56.000000	56.570000	-0.018660	0.057529	100.000000
57.000000	57.570000	-0.020169	0.057366	100.000000
58.000000	58.570000	-0.023117	0.059067	100.000000
59.000000	59.570000	-0.026927	0.057520	100.000000
60.000000	60.570000	-0.030828	0.058025	100.000000
61.000000	61.570000	-0.030935	0.055739	100.000000
62.000000	62.570000	-0.034315	0.057073	100.000000
63.000000	63.570000	-0.036453	0.055461	100.000000
64.000000	64.570000	-0.036795	0.055518	100.000000
65.000000	65.570000	-0.038736	0.056118	100.000000
66.000000	66.570000	-0.040461	0.058445	100.000000
67.000000	67.570000	-0.037927	0.055064	100.000000
68.000000	68.570000	-0.037514	0.056224	100.000000
69.000000	69.570000	-0.037406	0.056781	100.000000
70.000000	70.570000	-0.036004	0.055940	100.000000
71.000000	71.570000	-0.035465	0.055065	100.000000
72.000000	72.570000	-0.035591	0.056830	100.000000
73.000000	73.570000	-0.033020	0.055844	100.000000
74.000000	74.570000	-0.030971	0.056261	100.000000
75.000000	75.570000	-0.033002	0.057190	100.000000
76.000000	76.570000	-0.030971	0.056428	100.000000
77.000000	77.570000	-0.031223	0.056157	100.000000
78.000000	78.570000	-0.029174	0.056605	100.000000
79.000000	79.570000	-0.031493	0.054403	100.000000
80.000000	80.570000	-0.027413	0.054632	100.000000
81.000000	81.570000	-0.027431	0.054478	100.000000
82.000000	82.570000	-0.027377	0.052955	100.000000
83.000000	83.570000	-0.027395	0.054621	100.000000
84.000000	84.570000	-0.025472	0.054892	100.000000
85.000000	85.570000	-0.027359	0.054466	100.000000
86.000000	86.570000	-0.027808	0.053637	100.000000
87.000000	87.570000	-0.025723	0.055636	100.000000
88.000000	88.570000	-0.026712	0.057147	100.000000
89.000000	89.570000	-0.026478	0.055574	100.000000
90.000000	90.570000	-0.025723	0.056879	100.000000
91.000000	91.570000	-0.025723	0.056182	100.000000
92.000000	92.570000	-0.026945	0.057175	100.000000
93.000000	93.570000	-0.023656	0.057945	100.000000
94.000000	94.570000	-0.026586	0.057686	100.000000
95.000000	95.570000	-0.027089	0.056481	100.000000
96.000000	96.570000	-0.027862	0.058066	100.000000
97.000000	97.570000	-0.029480	0.058482	100.000000
98.000000	98.570000	-0.030450	0.059123	100.000000
99.000000	99.570000	-0.030989	0.058742	100.000000
100.000000	100.570000	-0.031924	0.058847	100.000000
101.000000	101.570000	-0.031996	0.058454	100.000000
102.000000	102.570000	-0.031421	0.059302	100.000000
103.000000	103.570000	-0.032643	0.059024	100.000000
104.000000	104.570000	-0.032949	0.059178	100.000000
105.000000	105.570000	-0.033632	0.059452	100.000000
106.000000	106.570000	-0.035375	0.059055	100.000000
107.000000	107.570000	-0.035465	0.058536	100.000000
108.000000	108.570000	-0.037514	0.060024	100.000000
109.000000	109.570000	-0.037136	0.059800	100.000000
110.000000	110.570000	-0.038898	0.058351	100.000000
111.000000	111.570000	-0.038664	0.057965	100.000000
112.000000	112.570000	-0.039509	0.058903	100.000000
113.000000	113.570000	-0.038988	0.061100	100.000000
114.000000	114.570000	-0.038880	0.059246	100.000000
115.000000	115.570000	-0.040425	0.060280	100.000000
116.000000	116.570000	-0.040857	0.061015	100.000000
117.000000	117.570000	-0.040390	0.061335	100.000000
118.000000	118.570000	-0.037891	0.060815	100.000000
119.000000	119.570000	-0.041252	0.061554	100.000000
120.000000	120.570000	-0.040587	0.061411	100.000000
121.000000	121.570000	-0.039868	0.059942	100.000000
122.000000	122.570000	-0.038251	0.061856	100.000000
123.000000	123.570000	-0.040030	0.061042	100.000000
124.000000	124.570000	-0.040282	0.060602	100.000000
125.000000	125.570000	-0.040354	0.060741	100.000000
126.000000	126.570000	-0.039635	0.059110	100.000000
127.000000	127.570000	-0.039707	0.060141	100.000000
128.000000	128.570000	-0.041594	0.059947	100.000000
129.000000	129.570000	-0.038538	0.056912	100.000000
130.000000	130.570000	-0.038970	0.058014	100.000000
131.000000	131.570000	-0.039024	0.056268	100.000000
132.000000	132.570000	-0.036238	0.057547	100.000000
133.000000	133.570000	-0.038556	0.057565	100.000000
134.000000	134.570000	-0.037172	0.056721	100.000000
135.000000	135.570000	-0.036615	0.056620	100.000000
136.000000	136.570000	-0.037963	0.056616	100.000000
137.000000	137.570000	-0.035627	0.058741	100.000000
138.000000	138.570000	-0.035770	0.058019	100.000000
139.000000	139.570000	-0.034908	0.056546	100.000000
140.000000	140.570000	-0.032212	0.055547	100.000000
141.000000	141.570000	-0.031654	0.057237	100.000000
142.000000	142.570000	-0.032158	0.058649	100.000000
143.000000	143.570000	-0.029336	0.056814	100.000000
144.000000	144.570000	-0.029120	0.056993	100.000000
145.000000	145.570000	-0.029120	0.057671	100.000000
146.000000	146.570000	-0.029408	0.055878	100.000000
147.000000	147.570000	-0.029695	0.057434	100.000000
148.000000	148.570000	-0.029138	0.054041	100.000000
149.000000	149.570000	-0.027233	0.056511	100.000000
150.000000	150.570000	-0.026406	0.055249	100.000000
151.000000	151.570000	-0.025094	0.055331	100.000000
152.000000	152.570000	-0.024411	0.055634	100.000000
153.000000	153.570000	-0.024124	0.057071	100.000000
154.000000	154.570000	-0.023710	0.052898	100.000000
155.000000	155.570000	-0.021949	0.053795	100.000000
156.000000	156.570000	-0.022075	0.055344	100.000000
157.000000	157.570000	-0.018893	0.054776	100.000000
158.000000	158.570000	-0.019540	0.055721	100.000000
159.000000	159.570000	-0.019630	0.055382	100.000000
160.000000	160.570000	-0.015946	0.058032	100.000000
161.000000	161.570000	-0.015209	0.056867	100.000000
162.000000	162.570000	-0.014741	0.059366	100.000000
163.000000	163.570000	-0.014652	0.056868	100.000000
164.000000	164.570000	-0.022991	0.057391	100.000000
165.000000	165.570000	-0.020151	0.056505	100.000000
166.000000	166.570000	-0.015640	0.057322	100.000000
167.000000	167.570000	-0.013160	0.057264	100.000000
168.000000	168.570000	-0.012639	0.056043	100.000000
169.000000	169.570000	-0.010697	0.057823	100.000000
170.000000	170.570000	-0.009403	0.057197	100.000000
171.000000	171.570000	-0.009727	0.058463	100.000000
172.000000	172.570000	-0.008379	0.059121	100.000000
173.000000	173.570000	-0.008235	0.061790	100.000000
174.000000	174.570000	-0.004964	0.058585	100.000000
175.000000	175.570000	-0.005144	0.059110	100.000000
176.000000	176.570000	-0.004011	0.059172	100.000000
177.000000	177.570000	-0.001908	0.060703	100.000000
178.000000	178.570000	-0.001908	0.059002	100.000000
179.000000	179.570000	0.001129	0.060003	100.000000
180.000000	180.570000	0.000159	0.060554	100.000000
181.000000	181.570000	0.003394	0.060122	100.000000
182.000000	182.570000	0.004436	0.060555	100.000000
183.000000	183.570000	0.006737	0.058062	100.000000
184.000000	184.570000	0.007779	0.060969	100.000000
185.000000	185.570000	0.009163	0.060600	100.000000
186.000000	186.570000	0.010278	0.060605	100.000000
187.000000	187.570000	0.009828	0.059991	100.000000
188.000000	188.570000	0.013567	0.061263	100.000000
189.000000	189.570000	0.014393	0.061054	100.000000
190.000000	190.570000	0.016586	0.061488	100.000000
191.000000	191.570000	0.020720	0.061888	100.000000
192.000000	192.570000	0.021637	0.062442	100.000000
193.000000	193.570000	0.024117	0.062500	100.000000
194.000000	194.570000	0.025663	0.060036	100.000000
195.000000	195.570000	0.028557	0.060516	100.000000
196.000000	196.570000	0.029958	0.058929	100.000000
197.000000	197.570000	0.031630	0.060963	100.000000
198.000000	198.570000	0.033266	0.058842	100.000000
199.000000	199.570000	0.036770	0.060741	100.000000
200.000000	200.570000	0.040940	0.058364	100.000000
201.000000	201.570000	0.042144	0.060909	100.000000
202.000000	202.570000	0.045739	0.059760	100.000000
203.000000	203.570000	0.050754	0.059841	100.000000
204.000000	204.570000	0.054456	0.059863	100.000000
205.000000	205.570000	0.056775	0.057369	100.000000
206.000000	206.570000	0.060711	0.056275	100.000000
207.000000	207.570000	0.064575	0.055437	100.000000
208.000000	208.570000	0.067271	0.057404	100.000000
209.000000	209.570000	0.071082	0.057139	100.000000
210.000000	210.570000	0.074443	0.057558	100.000000
211.000000	211.570000	0.075988	0.059139	100.000000
212.000000	212.570000	0.079637	0.057276	100.000000
213.000000	213.570000	0.083196	0.056741	100.000000
214.000000	214.570000	0.086880	0.057233	100.000000
215.000000	215.570000	0.090080	0.058017	100.000000
216.000000	216.570000	0.093674	0.055513	100.000000
217.000000	217.570000	0.093944	0.056086	100.000000
218.000000	218.570000	0.097467	0.055321	100.000000
219.000000	219.570000	0.102517	0.055134	100.000000
220.000000	220.570000	0.105662	0.055253	100.000000
221.000000	221.570000	0.108053	0.054749	100.000000
222.000000	222.570000	0.112241	0.055201	100.000000
223.000000	223.570000	0.116303	0.056017	100.000000
224.000000	224.570000	0.117687	0.056148	100.000000
225.000000	225.570000	0.122539	0.055506	100.000000
226.000000	226.570000	0.125289	0.056311	100.000000
227.000000	227.570000	0.128615	0.055413	100.000000
228.000000	228.570000	0.134240	0.054677	100.000000
229.000000	229.570000	0.139560	0.053582	100.000000
230.000000	230.570000	0.141591	0.054520	100.000000
231.000000	231.570000	0.145941	0.056146	100.000000
232.000000	232.570000	0.152986	0.057019	100.000000
233.000000	233.570000	0.156761	0.055758	100.000000
234.000000	234.570000	0.162045	0.057904	100.000000
235.000000	235.570000	0.167401	0.057438	100.000000
236.000000	236.570000	0.172164	0.056749	100.000000
237.000000	237.570000	0.179353	0.057444	100.000000
238.000000	238.570000	0.182283	0.057315	100.000000
239.000000	239.570000	0.188951	0.058484	100.000000
240.000000	240.570000	0.195619	0.057272	100.000000
241.000000	241.570000	0.200364	0.059359	100.000000
242.000000	242.570000	0.206853	0.057570	100.000000
243.000000	243.570000	0.213072	0.058999	100.000000
244.000000	244.570000	0.220297	0.058600	100.000000
245.000000	245.570000	0.229194	0.058634	100.000000
246.000000	246.570000	0.235377	0.061213	100.000000
247.000000	247.570000	0.240984	0.058585	100.000000
248.000000	248.570000	0.249576	0.059568	100.000000
249.000000	249.570000	0.255633	0.060931	100.000000
250.000000	250.570000	0.265788	0.058011	100.000000
251.000000	251.570000	0.275331	0.057975	100.000000
252.000000	252.570000	0.281874	0.060809	100.000000
253.000000	253.570000	0.290627	0.058793	100.000000
254.000000	254.570000	0.299667	0.058636	100.000000
255.000000	255.570000	0.309175	0.059612	100.000000
256.000000	256.570000	0.318252	0.058194	100.000000
257.000000	257.570000	0.328227	0.060146	100.000000
258.000000	258.570000	0.339910	0.060089	100.000000
259.000000	259.570000	0.348142	0.058435	100.000000
260.000000	260.570000	0.361532	0.060400	100.000000
261.000000	261.570000	0.372046	0.060381	100.000000
262.000000	262.570000	0.383208	0.060666	100.000000
263.000000	263.570000	0.393579	0.062156	100.000000
264.000000	264.570000	0.408281	0.060697	100.000000
265.000000	265.570000	0.422947	0.059621	100.000000
266.000000	266.570000	0.437182	0.060607	100.000000
267.000000	267.570000	0.450878	0.059421	100.000000
268.000000	268.570000	0.467126	0.059740	100.000000
269.000000	269.570000	0.478952	0.058751	100.000000
270.000000	270.570000	0.497052	0.059238	100.000000
271.000000	271.570000	0.513641	0.060321	100.000000
272.000000	272.570000	0.529062	0.059729	100.000000
273.000000	273.570000	0.545094	0.058591	100.000000
274.000000	274.570000	0.561558	0.059879	100.000000
275.000000	275.570000	0.583000	0.058194	100.000000
276.000000	276.570000	0.601297	0.056943	100.000000
277.000000	277.570000	0.623944	0.057529	100.000000
278.000000	278.570000	0.642906	0.056905	100.000000
279.000000	279.570000	0.666541	0.057125	100.000000
280.000000	280.570000	0.686905	0.056662	100.000000
281.000000	281.570000	0.709659	0.056850	100.000000
282.000000	282.570000	0.736116	0.056986	100.000000
283.000000	283.570000	0.761423	0.054916	100.000000
284.000000	284.570000	0.786226	0.056034	100.000000
285.000000	285.570000	0.815019	0.055162	100.000000
286.000000	286.570000	0.841782	0.055260	100.000000
287.000000	287.570000	0.872768	0.055905	100.000000
288.000000	288.570000	0.902891	0.054722	100.000000
289.000000	289.570000	0.935243	0.057497	100.000000
290.000000	290.570000	0.970256	0.054910	100.000000
291.000000	291.570000	1.003363	0.056392	100.000000
292.000000	292.570000	1.039992	0.055350	100.000000
293.000000	293.570000	1.075436	0.057058	100.000000
294.000000	294.570000	1.117566	0.055416	100.000000
295.000000	295.570000	1.156981	0.054892	100.000000
296.000000	296.570000	1.197745	0.054591	100.000000
297.000000	297.570000	1.242751	0.053288	100.000000
298.000000	298.570000	1.288906	0.054050	100.000000
299.000000	299.570000	1.336805	0.053905	100.000000
300.000000	300.570000	1.386484	0.054556	100.000000
301.000000	301.570000	1.438697	0.054596	100.000000
302.000000	302.570000	1.492671	0.055407	100.000000
303.000000	303.570000	1.549754	0.055749	100.000000
304.000000	304.570000	1.606982	0.055177	100.000000
305.000000	305.570000	1.669493	0.055692	100.000000
306.000000	306.570000	1.735132	0.055477	100.000000
307.000000	307.570000	1.804240	0.055445	100.000000
308.000000	308.570000	1.875163	0.057434	100.000000
309.000000	309.570000	1.946122	0.055541	100.000000
310.000000	310.570000	2.023659	0.057401	100.000000
311.000000	311.570000	2.104971	0.056105	100.000000
312.000000	312.570000	2.186427	0.058437	100.000000
313.000000	313.570000	2.274335	0.056616	100.000000
314.000000	314.570000	2.361380	0.058931	100.000000
315.000000	315.570000	2.457232	0.056896	100.000000
316.000000	316.570000	2.559950	0.058869	100.000000
317.000000	317.570000	2.663711	0.058093	100.000000
318.000000	318.570000	2.770617	0.057645	100.000000
319.000000	319.570000	2.886797	0.057107	100.000000
320.000000	320.570000	3.006697	0.058589	100.000000
321.000000	321.570000	3.129905	0.059707	100.000000
322.000000	322.570000	3.262567	0.059331	100.000000
323.000000	323.570000	3.398949	0.059966	100.000000
324.000000	324.570000	3.536068	0.059668	100.000000
325.000000	325.570000	3.687081	0.058530	100.000000
326.000000	326.570000	3.839550	0.059226	100.000000
327.000000	327.570000	3.994786	0.059624	100.000000
328.000000	328.570000	4.159620	0.060341	100.000000
329.000000	329.570000	4.335220	0.061039	100.000000
330.000000	330.570000	4.514595	0.060715	100.000000
331.000000	331.570000	4.698966	0.058989	100.000000
332.000000	332.570000	4.891965	0.060664	100.000000
333.000000	333.570000	5.093860	0.061888	100.000000
334.000000	334.570000	5.290058	0.062718	100.000000
335.000000	335.570000	5.505793	0.063277	100.000000
336.000000	336.570000	5.729095	0.061845	100.000000
337.000000	337.570000	5.957411	0.062798	100.000000
338.000000	338.570000	6.182816	0.062476	100.000000
339.000000	339.570000	6.426948	0.064086	100.000000
340.000000	340.570000	6.673292	0.064209	100.000000
341.000000	341.570000	6.920588	0.063945	100.000000
342.000000	342.570000	7.179028	0.065704	100.000000
343.000000	343.570000	7.442015	0.067099	100.000000
344.000000	344.570000	7.709765	0.069323	100.000000
345.000000	345.570000	7.991031	0.074424	100.000000
346.000000	346.570000	8.276160	0.082445	99.000000
347.000000	347.570000	8.583560	0.098385	99.000000
348.000000	348.570000	8.906355	0.121100	99.000000
349.000000	349.570000	9.246192	0.146519	98.000000
350.000000	350.570000	9.615784	0.184863	98.000000
351.000000	351.570000	10.025468	0.234067	98.000000
352.000000	352.570000	10.460259	0.289191	98.000000
353.000000	353.570000	10.938224	0.354426	98.000000
354.000000	354.570000	11.459636	0.425787	98.000000
355.000000	355.570000	12.030641	0.505391	98.000000
356.000000	356.570000	12.646964	0.594140	98.000000
357.000000	357.570000	13.324475	0.717290	99.000000
358.000000	358.570000	14.019320	0.820073	99.000000
359.000000	359.570000	14.750511	0.932096	99.000000
360.000000	360.570000	15.516179	1.048460	99.000000
361.000000	361.570000	16.306464	1.167611	99.000000
362.000000	362.570000	17.105138	1.284988	99.000000
363.000000	363.570000	17.911835	1.403114	99.000000
364.000000	364.570000	18.735708	1.514162	99.000000
365.000000	365.570000	19.541461	1.615957	99.000000
366.000000	366.570000	20.328152	1.696409	99.000000
367.000000	367.570000	21.060632	1.754475	99.000000
368.000000	368.570000	21.751429	1.787808	99.000000
369.000000	369.570000	22.363469	1.786897	99.000000
370.000000	370.570000	22.887821	1.758239	99.000000
371.000000	371.570000	23.350213	1.755590	100.000000
372.000000	372.570000	23.655347	1.656633	100.000000
373.000000	373.570000	23.840348	1.535944	100.000000
374.000000	374.570000	23.905735	1.399051	100.000000
375.000000	375.570000	23.855176	1.251269	100.000000
376.000000	376.570000	23.724583	1.059166	99.000000
377.000000	377.570000	23.460791	0.913670	99.000000
378.000000	378.570000	23.120985	0.785055	99.000000
379.000000	379.570000	22.702912	0.662636	99.000000
380.000000	380.570000	22.234423	0.560833	99.000000
381.000000	381.570000	21.713703	0.471978	99.000000
382.000000	382.570000	21.163299	0.400890	99.000000
383.000000	383.570000	20.594776	0.352843	99.000000
384.000000	384.570000	20.005302	0.312412	99.000000
385.000000	385.570000	19.400361	0.292707	99.000000
386.000000	386.570000	18.789387	0.278366	100.000000
387.000000	387.570000	18.186415	0.267517	100.000000
388.000000	388.570000	17.591009	0.256561	100.000000
389.000000	389.570000	17.004213	0.248651	100.000000
390.000000	390.570000	16.428938	0.242792	100.000000
391.000000	391.570000	15.865723	0.238743	100.000000
392.000000	392.570000	15.315827	0.236418	100.000000
393.000000	393.570000	14.788019	0.228869	100.000000
394.000000	394.570000	14.259295	0.226485	100.000000
395.000000	395.570000	13.757639	0.222240	100.000000
396.000000	396.570000	13.266067	0.218731	100.000000
397.000000	397.570000	12.800088	0.214998	100.000000
398.000000	398.570000	12.339717	0.210385	100.000000
399.000000	399.570000	11.896720	0.188061	98.000000
400.000000	400.570000	11.475737	0.192139	99.000000
401.000000	401.570000	11.070790	0.186219	99.000000
402.000000	402.570000	10.681621	0.180153	99.000000
403.000000	403.570000	10.306012	0.173418	99.000000
404.000000	404.570000	9.939049	0.160508	98.000000
405.000000	405.570000	9.595812	0.155808	98.000000
406.000000	406.570000	9.270456	0.149267	98.000000
407.000000	407.570000	8.955389	0.147369	98.000000
408.000000	408.570000	8.650850	0.143743	98.000000
409.000000	409.570000	8.362083	0.138262	98.000000
410.000000	410.570000	8.084908	0.137006	98.000000
411.000000	411.570000	7.817452	0.132412	98.000000
412.000000	412.570000	7.567292	0.129805	98.000000
413.000000	413.570000	7.323733	0.126523	98.000000
414.000000	414.570000	7.090501	0.124866	98.000000
415.000000	415.570000	6.870638	0.121022	98.000000
416.000000	416.570000	6.660203	0.116705	98.000000
417.000000	417.570000	6.450996	0.114799	98.000000
418.000000	418.570000	6.260221	0.112793	98.000000
419.000000	419.570000	6.073756	0.111377	98.000000
420.000000	420.570000	5.895287	0.108867	98.000000
421.000000	421.570000	5.726025	0.105745	98.000000
422.000000	422.570000	5.560046	0.103965	98.000000
423.000000	423.570000	5.402009	0.102343	98.000000
424.000000	424.570000	5.248409	0.100477	98.000000
425.000000	425.570000	5.103650	0.098408	98.000000
426.000000	426.570000	4.966873	0.100823	99.000000
427.000000	427.570000	4.832418	0.099571	99.000000
428.000000	428.570000	4.704353	0.099738	99.000000
429.000000	429.570000	4.578502	0.095626	99.000000
430.000000	430.570000	4.460369	0.098068	100.000000
431.000000	431.570000	4.347999	0.096520	100.000000
432.000000	432.570000	4.237966	0.094366	100.000000
433.000000	433.570000	4.132426	0.091522	100.000000
434.000000	434.570000	4.031811	0.089935	100.000000
435.000000	435.570000	3.932742	0.088428	100.000000
436.000000	436.570000	3.839729	0.088185	100.000000
437.000000	437.570000	3.746214	0.086378	100.000000
438.000000	438.570000	3.664039	0.086245	100.000000
439.000000	439.570000	3.578450	0.084380	100.000000
440.000000	440.570000	3.498145	0.082886	100.000000
441.000000	441.570000	3.419978	0.081411	100.000000
442.000000	442.570000	3.344256	0.080821	100.000000
443.000000	443.570000	3.273063	0.080703	100.000000
444.000000	444.570000	3.201907	0.080407	100.000000
445.000000	445.570000	3.134201	0.079552	100.000000
446.000000	446.570000	3.068634	0.079974	100.000000
447.000000	447.570000	3.005601	0.076955	100.000000
448.000000	448.570000	2.946253	0.076367	100.000000
449.000000	449.570000	2.888468	0.075985	100.000000
450.000000	450.570000	2.831151	0.075304	100.000000
451.000000	451.570000	2.775991	0.075653	100.000000
452.000000	452.570000	2.722268	0.075141	100.000000
453.000000	453.570000	2.670828	0.073512	100.000000
454.000000	454.570000	2.623001	0.076742	100.000000
455.000000	455.570000	2.576432	0.075448	100.000000
456.000000	456.570000	2.527670	0.073611	100.000000
457.000000	457.570000	2.481388	0.075229	100.000000
458.000000	458.570000	2.441254	0.074665	100.000000
459.000000	459.570000	2.395440	0.073253	100.000000
460.000000	460.570000	2.356024	0.071746	100.000000
461.000000	461.570000	2.317327	0.073414	100.000000
462.000000	462.570000	2.278487	0.073315	100.000000
463.000000	463.570000	2.240958	0.071574	100.000000
464.000000	464.570000	2.204670	0.072059	100.000000
465.000000	465.570000	2.170736	0.071715	100.000000
466.000000	466.570000	2.134879	0.071555	100.000000
467.000000	467.570000	2.103192	0.071768	100.000000
468.000000	468.570000	2.070858	0.071633	100.000000
469.000000	469.570000	2.041759	0.070130	100.000000
470.000000	470.570000	2.011725	0.068529	100.000000
471.000000	471.570000	1.984891	0.069368	100.000000
472.000000	472.570000	1.957338	0.071237	100.000000
473.000000	473.570000	1.927861	0.069396	100.000000
474.000000	474.570000	1.904154	0.067029	100.000000
475.000000	475.570000	1.877679	0.069897	100.000000
476.000000	476.570000	1.853847	0.069928	100.000000
477.000000	477.570000	1.829583	0.069155	100.000000
478.000000	478.570000	1.806271	0.068873	100.000000
479.000000	479.570000	1.782870	0.066890	100.000000
480.000000	480.570000	1.759828	0.066882	100.000000
481.000000	481.570000	1.739769	0.066793	100.000000
482.000000	482.570000	1.717231	0.067484	100.000000
483.000000	483.570000	1.699922	0.067203	100.000000
484.000000	484.570000	1.678786	0.064097	100.000000
485.000000	485.570000	1.658871	0.064265	100.000000
486.000000	486.570000	1.641617	0.063335	100.000000
487.000000	487.570000	1.622978	0.063201	100.000000
488.000000	488.570000	1.605598	0.063772	100.000000
489.000000	489.570000	1.587067	0.064668	100.000000
490.000000	490.570000	1.572509	0.063511	100.000000
491.000000	491.570000	1.555254	0.063214	100.000000
492.000000	492.570000	1.536113	0.063124	100.000000
493.000000	493.570000	1.522525	0.060559	100.000000
494.000000	494.570000	1.507014	0.061702	100.000000
495.000000	495.570000	1.489633	0.061054	100.000000
496.000000	496.570000	1.475488	0.061021	100.000000
497.000000	497.570000	1.461595	0.060778	100.000000
498.000000	498.570000	1.446228	0.061795	100.000000
499.000000	499.570000	1.428901	0.061225	100.000000
500.000000	500.570000	1.413444	0.060313	100.000000
501.000000	501.570000	1.400054	0.060445	100.000000
502.000000	502.570000	1.384974	0.060669	100.000000
503.000000	503.570000	1.369373	0.059373	100.000000
504.000000	504.570000	1.354312	0.059235	100.000000
505.000000	505.570000	1.335871	0.059837	100.000000
506.000000	506.570000	1.320683	0.057643	100.000000
507.000000	507.570000	1.302009	0.059694	100.000000
508.000000	508.570000	1.287271	0.059391	100.000000
509.000000	509.570000	1.269585	0.060155	100.000000
510.000000	510.570000	1.251827	0.057626	100.000000
511.000000	511.570000	1.235795	0.058066	100.000000
512.000000	512.570000	1.214730	0.057014	100.000000
513.000000	513.570000	1.195786	0.056354	100.000000
514.000000	514.570000	1.178280	0.056909	100.000000
515.000000	515.570000	1.157503	0.056498	100.000000
516.000000	516.570000	1.138864	0.056763	100.000000
517.000000	517.570000	1.116487	0.056264	100.000000
518.000000	518.570000	1.096213	0.057190	100.000000
519.000000	519.570000	1.075274	0.057661	100.000000
520.000000	520.570000	1.054964	0.056943	100.000000
521.000000	521.570000	1.032713	0.058275	100.000000
522.000000	522.570000	1.010732	0.058267	100.000000
523.000000	523.570000	0.988319	0.057443	100.000000
524.000000	524.570000	0.955284	0.057533	100.000000
525.000000	525.570000	0.936448	0.057879	100.000000
526.000000	526.570000	0.914862	0.057987	100.000000
527.000000	527.570000	0.892772	0.057458	100.000000
528.000000	528.570000	0.868706	0.056373	100.000000
529.000000	529.570000	0.844532	0.058299	100.000000
530.000000	530.570000	0.823161	0.056021	100.000000
531.000000	531.570000	0.797729	0.059059	100.000000
532.000000	532.570000	0.777473	0.055229	100.000000
533.000000	533.570000	0.752166	0.059636	100.000000
534.000000	534.570000	0.730364	0.057059	100.000000
535.000000	535.570000	0.706963	0.058628	100.000000
536.000000	536.570000	0.685251	0.057562	100.000000
537.000000	537.570000	0.663360	0.057919	100.000000
538.000000	538.570000	0.644056	0.056993	100.000000
539.000000	539.570000	0.621895	0.057057	100.000000
540.000000	540.570000	0.603382	0.056254	100.000000
541.000000	541.570000	0.581221	0.058456	100.000000
542.000000	542.570000	0.562690	0.058180	100.000000
543.000000	543.570000	0.549390	0.058589	100.000000
544.000000	544.570000	0.529476	0.056629	100.000000
545.000000	545.570000	0.515636	0.060202	100.000000
546.000000	546.570000	0.500862	0.057727	100.000000
547.000000	547.570000	0.486933	0.058312	100.000000
548.000000	548.570000	0.475591	0.059619	100.000000
549.000000	549.570000	0.460530	0.059161	100.000000
550.000000	550.570000	0.450680	0.060128	100.000000
551.000000	551.570000	0.437344	0.058235	100.000000
552.000000	552.570000	0.428878	0.058717	100.000000
553.000000	553.570000	0.418076	0.059631	100.000000
554.000000	554.570000	0.412469	0.060017	100.000000
555.000000	555.570000	0.403302	0.056292	100.000000
556.000000	556.570000	0.396382	0.059799	100.000000
557.000000	557.570000	0.388205	0.056890	100.000000
558.000000	558.570000	0.385419	0.057742	100.000000
559.000000	559.570000	0.377582	0.057056	100.000000
560.000000	560.570000	0.372711	0.057394	100.000000
561.000000	561.570000	0.367517	0.059259	100.000000
562.000000	562.570000	0.363851	0.056875	100.000000
563.000000	563.570000	0.359771	0.058235	100.000000
564.000000	564.570000	0.357434	0.055968	100.000000
565.000000	565.570000	0.352258	0.056241	100.000000
566.000000	566.570000	0.346614	0.055102	100.000000
567.000000	567.570000	0.347351	0.055007	100.000000
568.000000	568.570000	0.338796	0.053064	100.000000
569.000000	569.570000	0.341258	0.057420	100.000000
570.000000	570.570000	0.335147	0.054592	100.000000
571.000000	571.570000	0.334877	0.055743	100.000000
572.000000	572.570000	0.329396	0.055200	100.000000
573.000000	573.570000	0.329611	0.054489	100.000000
574.000000	574.570000	0.326448	0.055233	100.000000
575.000000	575.570000	0.323231	0.055522	100.000000
576.000000	576.570000	0.318558	0.054148	100.000000
577.000000	577.570000	0.317210	0.053755	100.000000
578.000000	578.570000	0.313705	0.054041	100.000000
579.000000	579.570000	0.311135	0.055703	100.000000
580.000000	580.570000	0.309769	0.054713	100.000000
581.000000	581.570000	0.308960	0.053006	100.000000
582.000000	582.570000	0.305437	0.055647	100.000000
583.000000	583.570000	0.302112	0.054730	100.000000
584.000000	584.570000	0.302435	0.055200	100.000000
585.000000	585.570000	0.300494	0.053970	100.000000
586.000000	586.570000	0.299506	0.054197	100.000000
587.000000	587.570000	0.299667	0.054192	100.000000
588.000000	588.570000	0.298931	0.055312	100.000000
589.000000	589.570000	0.300440	0.053259	100.000000
590.000000	590.570000	0.299398	0.053133	100.000000
591.000000	591.570000	0.302202	0.055645	100.000000
592.000000	592.570000	0.300728	0.055108	100.000000
593.000000	593.570000	0.302328	0.054836	100.000000
594.000000	594.570000	0.303747	0.055733	100.000000
595.000000	595.570000	0.306947	0.054962	100.000000
596.000000	596.570000	0.308888	0.055601	100.000000
597.000000	597.570000	0.313022	0.055500	100.000000
598.000000	598.570000	0.311782	0.056663	100.000000
599.000000	599.570000	0.315215	0.057240	100.000000
600.000000	600.570000	0.317731	0.057255	100.000000
601.000000	601.570000	0.319762	0.056342	100.000000
602.000000	602.570000	0.321056	0.060160	100.000000
603.000000	603.570000	0.320265	0.059107	100.000000
604.000000	604.570000	0.322853	0.057612	100.000000
605.000000	605.570000	0.324345	0.056954	100.000000
606.000000	606.570000	0.325154	0.057157	100.000000
607.000000	607.570000	0.325927	0.059642	100.000000
608.000000	608.570000	0.326340	0.058891	100.000000
609.000000	609.570000	0.325819	0.059448	100.000000
610.000000	610.570000	0.327436	0.058007	100.000000
611.000000	611.570000	0.327850	0.056554	100.000000
612.000000	612.570000	0.325477	0.058051	100.000000
613.000000	613.570000	0.326124	0.058272	100.000000
614.000000	614.570000	0.326232	0.057836	100.000000
615.000000	615.570000	0.324884	0.057832	100.000000
616.000000	616.570000	0.323878	0.058924	100.000000
617.000000	617.570000	0.322206	0.060644	100.000000
618.000000	618.570000	0.326574	0.056428	100.000000
619.000000	619.570000	0.321901	0.058765	100.000000
620.000000	620.570000	0.322745	0.058405	100.000000
621.000000	621.570000	0.323788	0.061938	100.000000
622.000000	622.570000	0.325495	0.060251	100.000000
623.000000	623.570000	0.325855	0.060388	100.000000
624.000000	624.570000	0.325262	0.061016	100.000000
625.000000	625.570000	0.327796	0.060915	100.000000
626.000000	626.570000	0.328299	0.058231	100.000000
627.000000	627.570000	0.329342	0.061496	100.000000
628.000000	628.570000	0.333583	0.059686	100.000000
629.000000	629.570000	0.334698	0.057980	100.000000
630.000000	630.570000	0.339389	0.059636	100.000000
631.000000	631.570000	0.344673	0.058789	100.000000
632.000000	632.570000	0.349670	0.057546	100.000000
633.000000	633.570000	0.355457	0.057382	100.000000
634.000000	634.570000	0.357955	0.057791	100.000000
635.000000	635.570000	0.363743	0.058195	100.000000
636.000000	636.570000	0.370303	0.057258	100.000000
637.000000	637.570000	0.376684	0.058690	100.000000
638.000000	638.570000	0.381734	0.057231	100.000000
639.000000	639.570000	0.387791	0.057850	100.000000
640.000000	640.570000	0.393650	0.055752	100.000000
641.000000	641.570000	0.401253	0.056180	100.000000
642.000000	642.570000	0.403877	0.056934	100.000000
643.000000	643.570000	0.411228	0.055030	100.000000
644.000000	644.570000	0.417465	0.056542	100.000000
645.000000	645.570000	0.420377	0.056454	100.000000
646.000000	646.570000	0.425589	0.055246	100.000000
647.000000	647.570000	0.429256	0.057234	100.000000
648.000000	648.570000	0.435564	0.057206	100.000000
649.000000	649.570000	0.438153	0.055173	100.000000
650.000000	650.570000	0.441640	0.055487	100.000000
651.000000	651.570000	0.442988	0.056431	100.000000
652.000000	652.570000	0.449548	0.054376	100.000000
653.000000	653.570000	0.452244	0.054243	100.000000
654.000000	654.570000	0.456378	0.056246	100.000000
655.000000	655.570000	0.459900	0.054949	100.000000
656.000000	656.570000	0.462992	0.053463	100.000000
657.000000	657.570000	0.466551	0.055063	100.000000
658.000000	658.570000	0.469283	0.056190	100.000000
659.000000	659.570000	0.471655	0.055110	100.000000
660.000000	660.570000	0.476526	0.054504	100.000000
661.000000	661.570000	0.481361	0.057096	100.000000
662.000000	662.570000	0.485531	0.055725	100.000000
663.000000	663.570000	0.487418	0.055679	100.000000
664.000000	664.570000	0.493673	0.056760	100.000000
665.000000	665.570000	0.496153	0.055026	100.000000
666.000000	666.570000	0.501599	0.056780	100.000000
667.000000	667.570000	0.504241	0.057572	100.000000
668.000000	668.570000	0.507584	0.056078	100.000000
669.000000	669.570000	0.511179	0.056675	100.000000
670.000000	670.570000	0.511700	0.057248	100.000000
671.000000	671.570000	0.515672	0.056834	100.000000
672.000000	672.570000	0.517577	0.056362	100.000000
673.000000	673.570000	0.517883	0.058288	100.000000
674.000000	674.570000	0.520435	0.058342	100.000000
675.000000	675.570000	0.520219	0.058767	100.000000
676.000000	676.570000	0.519932	0.059513	100.000000
677.000000	677.570000	0.518224	0.058548	100.000000
678.000000	678.570000	0.518584	0.058069	100.000000
679.000000	679.570000	0.517182	0.058690	100.000000
680.000000	680.570000	0.514540	0.059724	100.000000
681.000000	681.570000	0.513335	0.057230	100.000000
682.000000	682.570000	0.510316	0.059396	100.000000
683.000000	683.570000	0.508878	0.060224	100.000000
684.000000	684.570000	0.508393	0.060371	100.000000
685.000000	685.570000	0.507045	0.061050	100.000000
686.000000	686.570000	0.507746	0.058582	100.000000
687.000000	687.570000	0.506685	0.060048	100.000000
688.000000	688.570000	0.506236	0.061396	100.000000
689.000000	689.570000	0.509345	0.059536	100.000000
690.000000	690.570000	0.512311	0.061401	100.000000
691.000000	691.570000	0.514719	0.060465	100.000000
692.000000	692.570000	0.518602	0.060411	100.000000
693.000000	693.570000	0.522843	0.058357	100.000000
694.000000	694.570000	0.516535	0.061368	100.000000
695.000000	695.570000	0.523203	0.060374	100.000000
696.000000	696.570000	0.529224	0.061199	100.000000
697.000000	697.570000	0.536647	0.059974	100.000000
698.000000	698.570000	0.540278	0.060727	100.000000
699.000000	699.570000	0.544663	0.058203	100.000000
700.000000	700.570000	0.545670	0.058491	100.000000
701.000000	701.570000	0.549534	0.058236	100.000000
702.000000	702.570000	0.549588	0.060514	100.000000
703.000000	703.570000	0.549444	0.059747	100.000000
704.000000	704.570000	0.551583	0.058431	100.000000
705.000000	705.570000	0.551781	0.059822	100.000000
706.000000	706.570000	0.551727	0.058781	100.000000
707.000000	707.570000	0.552535	0.057203	100.000000
708.000000	708.570000	0.553650	0.056273	100.000000
709.000000	709.570000	0.552949	0.057784	100.000000
710.000000	710.570000	0.554459	0.055503	100.000000
711.000000	711.570000	0.555393	0.054334	100.000000
712.000000	712.570000	0.555267	0.055415	100.000000
713.000000	713.570000	0.553668	0.054900	100.000000
714.000000	714.570000	0.549372	0.058360	100.000000
715.000000	715.570000	0.547575	0.056995	100.000000
716.000000	716.570000	0.541626	0.056649	100.000000
717.000000	717.570000	0.538372	0.056813	100.000000
718.000000	718.570000	0.527696	0.054985	100.000000
719.000000	719.570000	0.520022	0.056280	100.000000

